n v(n)    Re(T)       Im(T)        Mod(T) 
   
0  4095  1128991.0  0.0  1128991.0  
1  4095  -62155.223  1908.1741  62184.504  
2  0  -61543.44  10915.701  62503.984  
3  0  -62813.812  17499.514  65205.89  
4  0  -73640.87  21890.188  76825.5  
5  0  -87706.35  47745.67  99860.17  
6  0  -112699.51  61881.977  128571.22  
7  0  -178058.7  109109.53  208829.58  
8  0  -524175.84  371739.94  642612.56  
9  0  440762.53  -351799.66  563945.56  
10  0  141965.88  -129704.58  192295.58  
11  0  78517.85  -83128.4  114347.65  
12  0  47138.13  -64988.85  80284.2  
13  0  40327.0  -56302.477  69254.86  
14  0  34758.68  -45208.48  57026.07  
15  0  29502.188  -41636.84  51029.457  
16  0  30097.678  -47528.78  56257.047  
17  0  -91441.17  355184.9  366766.7  
18  0  7820.536  1137.833  7902.876  
19  0  12311.1455  -8400.8  14904.286  
20  0  13236.975  -12502.927  18208.258  
21  0  364.84595  -6610.868  6620.928  
22  0  10557.729  -5082.1387  11717.242  
23  0  6927.4673  -5507.0547  8849.715  
24  0  6345.4395  2816.8281  6942.5586  
25  0  28088.764  51718.535  58853.934  
26  0  -15283.535  -61396.4  63270.09  
27  0  -8092.409  -26944.309  28133.305  
28  0  -5797.964  -19139.982  19998.883  
29  0  -7060.41  -18442.139  19747.451  
30  0  -15735.371  -15801.445  22299.945  
31  0  -6737.4077  -18910.58  20074.928  
32  0  -11354.461  -21710.746  24500.617  
33  0  -28441.19  -30189.01  41476.227  
34  0  211552.19  123036.34  244728.97  
35  0  20113.459  1366.1196  20159.799  
36  0  8151.533  -5809.0176  10009.6045  
37  0  3003.881  -9021.231  9508.203  
38  0  1973.9272  2617.16  3278.0962  
39  0  -5320.357  905.9944  5396.946  
40  0  -12036.249  148.91187  12037.171  
41  0  -22934.049  1772.5491  23002.445  
42  0  -89040.78  3024.462  89092.13  
43  0  53064.16  -8667.428  53767.363  
44  0  25176.031  -2849.1714  25336.738  
45  0  17360.287  -3643.0405  17738.414  
46  0  5785.801  -7963.44  9843.366  
47  0  9024.519  4767.609  10206.47  
48  0  6892.403  -2926.6006  7488.0044  
49  0  1417.927  -49.327637  1418.7848  
50  0  -7408.2627  12417.469  14459.457  
51  0  70311.664  -58677.484  91579.35  
52  0  9901.466  -9900.406  14002.037  
53  0  6542.547  -4364.9443  7864.964  
54  0  5766.4834  -3690.7354  6846.448  
55  0  6794.671  -2794.356  7346.8345  
56  0  10847.869  9630.998  14506.288  
57  0  7132.0723  11969.514  13933.259  
58  0  2765.9766  22913.262  23079.605  
59  0  -18616.568  118226.08  119682.84  
60  0  17576.785  -59122.695  61680.113  
61  0  11123.249  -29042.316  31099.562  
62  426  7172.787  -20499.123  21717.8  
63  4095  -3693.0107  -11078.94  11678.238  
64  4095  4444.2266  -15312.099  15944.012  
65  4095  3182.6787  -15379.248  15705.117  
66  4095  3048.1252  -13758.447  14092.052  
67  4095  5641.034  -16848.48  17767.74  
68  4095  23264.293  26100.406  34963.676  
69  4095  8770.619  3994.7568  9637.522  
70  4095  9246.874  -1205.2703  9325.093  
71  4095  8184.0054  -6806.4746  10644.531  
72  4095  2397.9966  1801.1035  2999.06  
73  4095  14112.12  -3519.5593  14544.389  
74  4095  11128.328  -2708.207  11453.125  
75  4095  12924.322  2187.1887  13108.085  
76  4095  70752.11  30449.922  77026.35  
77  4095  -20458.72  -18590.473  27643.533  
78  4095  -8430.994  -8437.777  11928.024  
79  4095  -4201.3394  -4729.8633  6326.362  
80  4095  -3089.3164  2039.4353  3701.7795  
81  4095  -9559.441  3175.7905  10073.161  
82  4095  -8050.915  -2019.2239  8300.2705  
83  4095  -11690.457  -2553.2969  11966.04  
84  4095  -30298.918  -1231.185  30323.922  
85  4095  85029.66  -18594.979  87039.164  
86  4095  22232.207  -7635.3896  23506.812  
87  4095  11645.519  -8179.455  14231.008  
88  4095  3044.489  -10179.746  10625.26  
89  4095  13059.552  728.25024  13079.841  
90  4095  8851.225  -3689.4268  9589.372  
91  4095  5709.747  -315.26025  5718.444  
92  4095  5559.412  3985.389  6840.35  
93  4095  2617.353  959.44025  2787.6626  
94  4095  2496.4326  -1425.1093  2874.563  
95  4095  7145.9175  -496.6775  7163.157  
96  4095  8450.752  -1947.1606  8672.176  
97  0  2807.6033  -360.94775  2830.71  
98  0  11216.094  8291.277  13947.977  
99  0  5410.194  3463.6787  6423.9604  
100  0  2366.6125  7881.1406  8228.805  
101  0  1309.0085  30814.896  30842.686  
102  0  12734.594  -65409.492  66637.62  
103  0  4077.6885  -17356.627  17829.191  
104  0  2286.2375  -8894.687  9183.808  
105  0  -1587.5637  -4651.4277  4914.8896  
106  0  5277.9873  -10034.684  11338.078  
107  0  10355.977  -5700.413  11821.208  
108  0  10979.895  -2832.3877  11339.334  
109  0  13606.367  511.7207  13615.986  
110  0  36811.06  47638.266  60203.477  
111  0  1589.4287  -11367.023  11477.608  
112  0  4441.3906  -10759.81  11640.424  
113  0  3690.8447  -10547.503  11174.621  
114  0  -85.4541  3619.4312  3620.4397  
115  0  6948.301  -6107.0137  9250.648  
116  0  2234.6453  -4817.1016  5310.189  
117  0  3175.9724  -2205.1763  3866.4717  
118  0  14387.403  -2199.6414  14554.58  
119  0  -7760.357  -10514.131  13067.902  
120  0  2475.8726  -1469.137  2878.9421  
121  0  4763.8203  -1690.1493  5054.759  
122  0  2314.2852  -2692.3933  3550.3376  
123  0  269.85913  1923.9165  1942.7504  
124  0  6123.4707  -8019.952  10090.418  
125  0  5238.3955  -7387.315  9056.115  
126  0  5756.091  -5325.3594  7841.6855  
127  0  67531.1  -20227.982  70495.54  
128  0  -4043.3992  -3601.6548  5414.886  
129  0  -2379.425  -3368.9963  4124.536  
130  0  -1399.8987  -3069.952  3374.066  
131  0  9585.111  5012.9478  10816.839  
132  0  2704.7563  5010.5024  5693.93  
133  0  401.8584  5148.576  5164.2354  
134  0  -971.9498  6743.756  6813.4375  
135  0  -11245.643  12492.311  16808.4  
136  0  19150.686  -23479.158  30298.838  
137  0  11778.451  -10194.106  15577.282  
138  0  7277.1924  -8377.754  11097.04  
139  0  -1971.2888  -4792.424  5182.0176  
140  0  11899.02  -1850.9619  12042.123  
141  0  4447.905  -6945.52  8247.673  
142  0  3929.34  -3468.6687  5241.3145  
143  0  7603.844  714.7986  7637.3677  
144  0  6125.8164  -31253.324  31848.014  
145  0  2126.8901  1567.0852  2641.8586  
146  0  4856.43  333.86597  4867.8926  
147  0  5198.84  -2142.5012  5623.0107  
148  0  7558.3926  -3329.5266  8259.24  
149  0  16113.101  726.0715  16129.451  
150  0  11817.744  1777.9061  11950.732  
151  0  11958.309  6105.9434  13426.977  
152  0  25450.398  27844.293  37723.035  
153  0  -15892.479  -32589.098  36257.69  
154  0  -3606.7183  -13418.145  13894.424  
155  0  -1677.8522  -6746.67  6952.1753  
156  0  -2806.4558  4777.3223  5540.668  
157  4095  719.09155  -8668.217  8697.993  
158  4095  977.7329  -7012.696  7080.527  
159  4095  3647.2415  -5889.266  6927.18  
160  4095  7775.1494  -8139.4585  11256.275  
161  4095  22949.617  675.6587  22959.56  
162  4095  7511.831  -1870.1577  7741.1304  
163  4095  5649.433  -5702.0957  8026.8296  
164  4095  1914.6528  -7785.457  8017.433  
165  4095  6037.0913  2611.4937  6577.718  
166  4095  8458.983  -9582.341  12781.849  
167  4095  5821.511  -5433.074  7962.932  
168  4095  8418.406  -2871.9624  8894.814  
169  4095  28543.492  -12608.275  31204.16  
170  4095  -17056.525  2372.9321  17220.797  
171  4095  -1978.2666  1095.9819  2261.5735  
172  4095  2835.4883  326.78638  2854.257  
173  4095  6895.812  3750.9766  7849.971  
174  4095  1469.4814  5209.5415  5412.827  
175  4095  164.54175  -1814.6292  1822.0739  
176  4095  -467.24146  -2438.4375  2482.7993  
177  4095  -2456.2803  -1096.4546  2689.8933  
178  4095  27289.104  -41030.355  49276.617  
179  4095  4348.046  -7416.532  8597.119  
180  4095  264.66675  -4703.9033  4711.3433  
181  4095  -3641.4932  -2290.0938  4301.744  
182  4095  14059.161  -3646.131  14524.266  
183  4095  5580.3433  -3193.8555  6429.6924  
184  4095  6032.1104  561.25073  6058.1646  
185  4095  8246.232  2144.7715  8520.587  
186  4095  3061.3557  41.621338  3061.6387  
187  4095  2538.5798  -2642.0732  3664.0056  
188  4095  6245.3574  -5177.395  8112.3306  
189  4095  5299.797  -6347.116  8268.841  
190  4095  2475.8433  -466.886  2519.4807  
191  0  12583.929  -2623.0374  12854.399  
192  0  3387.1035  -2650.9006  4301.133  
193  0  3402.5232  119.05469  3404.6055  
194  0  9940.621  4061.4502  10738.311  
195  0  -19817.463  -31013.338  36804.332  
196  0  -57.778076  -2826.9521  2827.5425  
197  0  2384.4644  -151.6399  2389.2812  
198  0  1719.5823  1980.5178  2622.8638  
199  0  3607.94  -9625.712  10279.667  
200  0  9467.882  -8146.5117  12490.254  
201  0  10426.938  -6182.453  12122.037  
202  0  13284.269  -5124.659  14238.466  
203  0  31938.12  3360.5325  32114.43  
204  0  -9009.633  -6529.356  11126.813  
205  0  -3490.252  -6782.8105  7628.131  
206  0  -2150.997  -4685.855  5155.9697  
207  0  6086.69  7712.991  9825.377  
208  0  1423.6559  -6733.1846  6882.047  
209  0  -168.5763  -2006.9734  2014.0408  
210  0  2366.6965  -1726.9341  2929.7703  
211  0  6268.632  -8566.741  10615.31  
212  0  -3683.6973  -1725.6343  4067.8545  
213  0  6215.8647  -2065.3909  6550.024  
214  0  5447.2764  -3883.2927  6689.752  
215  0  1918.3765  -2749.4116  3352.5264  
216  0  4149.644  -97.94214  4150.8  
217  0  1200.6128  -10574.508  10642.447  
218  0  1738.0366  -8214.373  8396.231  
219  0  4700.0273  -7779.7524  9089.269  
220  0  18931.902  -32784.61  37858.254  
221  0  -5381.6963  7973.0127  9619.334  
222  0  -910.6272  3116.3052  3246.629  
223  0  1818.2043  963.6328  2057.779  
224  0  15391.1875  -1544.0472  15468.443  
225  0  6020.2607  3130.0962  6785.355  
226  0  4153.3447  2717.2993  4963.2637  
227  0  3557.1948  2379.3743  4279.6094  
228  0  -311.203  3907.1333  3919.5073  
229  0  -1607.7869  -23156.184  23211.932  
230  0  2049.4482  -9430.885  9651.001  
231  0  -111.34204  -5178.0234  5179.22  
232  0  -3095.728  2620.5156  4055.9382  
233  0  9276.958  -8501.267  12583.063  
234  0  -120.92529  -5098.7407  5100.1743  
235  0  2729.6428  -2757.9512  3880.3665  
236  0  6946.2363  -3796.198  7915.89  
237  0  -7490.9814  -13214.206  15189.801  
238  0  6389.1567  3499.1926  7284.6187  
239  0  5859.256  -1768.0325  6120.1978  
240  0  3746.5415  -4416.4004  5791.473  
241  0  5261.4336  -6631.265  8465.008  
242  0  11766.914  -7989.523  14222.966  
243  0  7270.6504  -3584.702  8106.3213  
244  0  8174.9453  -1019.8738  8238.317  
245  0  17294.934  949.1023  17320.957  
246  0  -26188.373  -6546.297  26994.164  
247  0  -4498.122  -1851.167  4864.1465  
248  0  648.7634  934.3723  1137.5173  
249  0  6301.3223  7795.9717  10024.163  
250  0  -3234.7761  -8022.1006  8649.732  
251  4095  23.75  -5720.436  5720.4854  
252  4095  2871.3923  -6834.1943  7412.9014  
253  4095  4700.392  -10710.704  11696.703  
254  4095  13583.22  -10066.177  16906.56  
255  4095  2722.939  -2769.2378  3883.6934  
256  4095  -431.8101  -4467.7466  4488.5654  
257  4095  -2784.1492  -3073.2273  4146.8315  
258  4095  9232.364  479.11572  9244.788  
259  4095  -16.920898  -8833.284  8833.301  
260  4095  1752.5029  -3014.2854  3486.715  
261  4095  4829.4775  -2970.597  5669.9473  
262  4095  6287.738  -14712.507  15999.797  
263  4095  -5842.4736  12794.449  14065.292  
264  4095  3708.671  875.31665  3810.5667  
265  4095  5450.7393  -2440.5723  5972.1816  
266  4095  9002.596  -1894.2302  9199.72  
267  4095  2802.2617  2090.6042  3496.183  
268  4095  -2412.958  -2970.587  3827.1077  
269  4095  -2522.6118  -3432.465  4259.74  
270  4095  -2475.7505  -4505.204  5140.6426  
271  4095  -5691.3984  -31236.973  31751.229  
272  4095  809.2971  970.16724  1263.4026  
273  4095  -18.865112  2166.8916  2166.9736  
274  4095  -12.76416  3447.658  3447.6816  
275  4095  12128.541  -12426.027  17363.975  
276  4095  4162.063  -2415.053  4811.99  
277  4095  6562.472  -892.2583  6622.8516  
278  4095  7598.1787  -1704.5261  7787.023  
279  4095  900.8396  -87.42804  905.0722  
280  4095  -419.97363  -2649.9878  2683.0605  
281  4095  761.6079  -6119.534  6166.745  
282  4095  -319.14624  -4875.1226  4885.5576  
283  4095  2514.6287  1715.9126  3044.292  
284  4095  5893.715  -8033.761  9963.795  
285  4095  -748.3119  -732.7009  1047.2924  
286  0  1265.335  203.9856  1281.6719  
287  0  4570.833  -2833.718  5377.962  
288  0  -22493.643  -3413.318  22751.148  
289  0  5414.413  800.73914  5473.3037  
290  0  5661.0303  -394.68494  5674.7725  
291  0  4392.616  63.065918  4393.069  
292  0  -3217.7832  -11176.505  11630.494  
293  0  3490.8972  -10843.264  11391.345  
294  0  4675.3784  -8520.18  9718.674  
295  0  6549.5146  -8257.208  10539.337  
296  0  15215.635  -9270.176  17817.174  
297  0  -10671.356  6428.522  12458.079  
298  0  -4175.5923  1265.2571  4363.0776  
299  0  -107.00659  1516.6968  1520.4669  
300  0  14002.172  3647.999  14469.579  
301  0  -4477.327  -3695.5042  5805.4463  
302  0  -418.03583  404.55835  581.74  
303  0  1239.4187  -1997.2734  2350.5872  
304  0  -1362.5754  -8256.081  8367.765  
305  0  -574.197  558.05176  800.7022  
306  0  4303.088  -4846.4185  6481.075  
307  0  1331.3474  -4341.6064  4541.149  
308  0  -496.67065  -637.40186  808.06116  
309  0  2848.638  -2006.8713  3484.576  
310  0  -5857.944  -6243.831  8561.597  
311  0  -2217.573  -4236.875  4782.127  
312  0  619.023  -5926.2715  5958.513  
313  0  -4361.5933  -20136.559  20603.506  
314  0  5111.0327  13309.281  14256.915  
315  0  4369.581  3202.9224  5417.744  
316  0  4714.8906  -1505.6875  4949.4736  
317  0  11900.479  -12079.414  16956.816  
318  0  4869.9893  1979.7021  5256.997  
319  0  2544.788  1348.396  2879.951  
320  0  1027.8204  857.6323  1338.6366  
321  0  -2682.5903  2085.651  3397.9744  
322  0  -14021.673  -10419.01  17468.918  
323  0  -1757.8488  -2841.1606  3340.9917  
324  0  -547.51636  1271.7146  1384.5693  
325  0  2480.4539  6729.749  7172.32  
326  0  1612.0422  -13158.112  13256.493  
327  0  -1358.3486  -1099.5159  1747.5829  
328  0  2485.744  -2189.9756  3312.841  
329  0  3654.2063  -5509.792  6611.432  
330  0  -7460.1875  -546.1741  7480.154  
331  0  8256.43  -286.07324  8261.385  
332  0  2494.351  -3821.2085  4563.2686  
333  0  -792.0857  -3872.2014  3952.3845  
334  0  -74.81958  -6210.089  6210.5396  
335  0  3365.0159  -8942.709  9554.861  
336  0  2662.4177  -1567.6915  3089.6804  
337  0  4260.161  -347.75024  4274.3306  
338  0  6613.8545  -2779.1995  7174.052  
339  0  -16859.28  14274.557  22090.684  
340  0  1540.5071  2028.5991  2547.2292  
341  0  5469.3926  643.6465  5507.135  
342  0  11165.469  1321.1753  11243.362  
343  0  -11294.751  -3940.3794  11962.357  
344  0  -3231.7605  -4233.214  5325.822  
345  0  -1750.5227  -6392.4087  6627.761  
346  4095  -2434.0632  -9189.609  9506.502  
347  4095  3544.596  -9536.496  10173.934  
348  4095  646.96423  1539.842  1670.2324  
349  4095  -2010.683  1378.4878  2437.8423  
350  4095  -1172.508  2631.64  2881.0247  
351  4095  10464.446  -4952.242  11577.1045  
352  4095  -4961.216  -2109.7915  5391.1855  
353  4095  1563.7273  297.25287  1591.7294  
354  4095  3007.0334  -1960.0626  3589.4424  
355  4095  -3582.2407  -6943.7627  7813.3403  
356  4095  5683.8843  11736.328  13040.243  
357  4095  3458.3882  -2983.557  4567.5005  
358  4095  2080.2415  -4767.9307  5201.977  
359  4095  4471.4814  -4840.7773  6589.937  
360  4095  514.8904  3876.462  3910.5076  
361  4095  -5673.66  2183.5903  6079.349  
362  4095  -4814.7754  1287.4047  4983.9214  
363  4095  -5210.657  -687.53033  5255.8203  
364  4095  -16467.893  -10616.916  19593.63  
365  4095  6827.621  4375.741  8109.471  
366  4095  4738.751  3234.1528  5737.2036  
367  4095  4232.4883  1521.2161  4497.561  
368  4095  602.63806  -19611.797  19621.055  
369  4095  3304.0454  -449.28833  3334.453  
370  4095  4848.1426  -1713.0942  5141.9043  
371  4095  3774.9988  -2261.6763  4400.6587  
372  4095  -719.58984  3859.0298  3925.547  
373  4095  -2673.7847  1362.491  3000.9175  
374  4095  -2936.2625  -1392.3943  3249.6768  
375  4095  -1516.989  737.6128  1686.8102  
376  4095  5453.946  3005.037  6227.0195  
377  4095  -1974.1503  -6530.7725  6822.6284  
378  4095  -182.24243  3791.9197  3796.2964  
379  4095  1606.8948  1818.3162  2426.5994  
380  0  337.37695  -2081.596  2108.759  
381  0  -10995.778  11245.02  15727.606  
382  0  7517.57  -3633.63  8349.678  
383  0  3927.4443  -3284.8823  5120.085  
384  0  1360.7112  -1583.6267  2087.9197  
385  0  -12699.566  -4600.169  13507.056  
386  0  -2710.1936  -7358.9043  7842.1055  
387  0  -76.44275  -4964.3877  4964.9766  
388  0  1638.0227  -4816.8223  5087.7197  
389  0  5254.4844  -6083.7197  8038.7344  
390  0  -528.54297  15340.434  15349.536  
391  0  1350.781  4655.897  4847.885  
392  0  4745.3794  1147.0979  4882.0547  
393  0  14639.307  -6797.8076  16140.616  
394  0  -8790.134  5017.9917  10121.596  
395  0  -551.4402  2589.6704  2647.731  
396  0  -1465.7795  -544.74365  1563.7313  
397  0  -6820.2676  -2362.1252  7217.734  
398  0  945.2988  1514.8389  1785.5885  
399  0  249.19263  -3547.3481  3556.09  
400  0  -1311.0034  1.9396286  1311.0049  
401  0  243.59375  3548.1038  3556.4558  
402  0  946.1362  -1515.2578  1786.3875  
403  0  -6829.756  2339.6619  7219.389  
404  0  -1461.7266  536.5205  1557.0802  
405  0  -530.7114  -2598.299  2651.945  
406  0  -8764.958  -5032.2974  10106.8545  
407  0  14634.805  6826.297  16148.556  
408  0  4744.941  -1142.0952  4880.4556  
409  0  1357.9961  -4657.1997  4851.151  
410  0  -490.0464  -15332.596  15340.425  
411  0  5234.119  6111.667  8046.6436  
412  0  1626.6683  4832.0063  5098.464  
413  0  -99.48364  4972.042  4973.037  
414  0  -2738.8943  7359.337  7852.476  
415  0  -12706.889  4566.9707  13502.675  
416  0  1370.0537  1589.5259  2098.485  
417  0  3920.904  3286.5215  5116.1226  
418  0  7502.6406  3639.1328  8338.64  
419  0  -10976.066  -11271.54  15732.82  
420  0  343.6455  2094.329  2122.3352  
421  0  1616.5627  -1815.3794  2430.818  
422  0  -176.10718  -3786.4568  3790.55  
423  0  -1984.6671  6526.198  6821.3027  
424  0  5462.9155  -3005.2673  6234.9883  
425  0  -1520.3164  -730.0149  1686.5005  
426  0  -2933.2427  1388.9456  3245.4712  
427  0  -2665.387  -1372.046  2997.7988  
428  0  -697.4512  -3853.5583  3916.1653  
429  0  3772.5566  2275.6304  4405.755  
430  0  4850.1016  1729.4109  5149.2085  
431  0  3301.3047  468.46704  3334.3777  
432  0  562.5569  19610.672  19618.74  
433  0  4233.635  -1524.6008  4499.7856  
434  0  4739.581  -3231.7979  5736.562  
435  0  6815.478  -4374.01  8098.315  
436  0  -16502.951  10581.558  19603.998  
437  0  -5207.948  668.8219  5250.7188  
438  0  -4810.4014  -1298.8508  4982.6675  
439  0  -5660.6533  -2196.496  6071.869  
440  4095  530.98926  -3874.1233  3910.3428  
441  4095  4470.2534  4851.542  6597.016  
442  4095  2077.5396  4771.176  5203.8726  
443  4095  3458.2673  2981.9138  4566.336  
444  4095  5704.1396  -11716.876  13031.593  
445  4095  -3598.6624  6947.468  7824.173  
446  4095  3005.848  1963.5244  3590.3413  
447  4095  1560.5073  -286.79065  1586.6417  
448  4095  -4955.5107  2102.773  5383.1904  
449  4095  10456.994  4973.094  11579.309  
450  4095  -1160.5443  -2639.5513  2883.417  
451  4095  -2008.9602  -1378.54  2436.451  
452  4095  651.932  -1527.7354  1661.0209  
453  4095  3523.6926  9553.998  10183.088  
454  4095  -2457.4856  9182.313  9505.478  
455  4095  -1757.3865  6387.5625  6624.905  
456  4095  -3241.2834  4214.409  5316.687  
457  4095  -11286.573  3906.5703  11943.535  
458  4095  11192.836  -1306.7561  11268.859  
459  4095  5468.1562  -637.72534  5505.2183  
460  4095  1539.0339  -2033.5598  2550.2922  
461  4095  -16821.332  -14304.2705  22080.973  
462  4095  6625.1406  2801.7188  7193.199  
463  4095  4270.3784  357.16064  4285.288  
464  4095  2653.928  1584.9675  3091.19  
465  4095  3341.5623  8956.065  9559.14  
466  4095  -80.34766  6204.4023  6204.9224  
467  4095  -791.56006  3868.0781  3948.2395  
468  4095  2494.0317  3821.341  4563.205  
469  4095  8253.414  303.1831  8258.98  
470  4095  -7461.1987  536.1372  7480.4365  
471  4095  3650.0718  5518.1865  6616.1475  
472  4095  2488.426  2188.0354  3313.5725  
473  4095  -1355.4712  1096.7805  1743.6254  
474  2399  1586.2056  13149.637  13244.961  
475  0  2494.0015  -6738.2554  7184.993  
476  0  -548.4878  -1267.5549  1381.1351  
477  0  -1767.6768  2844.0913  3348.6619  
478  0  -14035.496  10383.638  17458.953  
479  0  -2650.0498  -2104.336  3383.9316  
480  0  1051.496  -858.7915  1357.6327  
481  0  2564.0276  -1338.1409  2892.2065  
482  0  4887.26  -1959.576  5265.4766  
483  0  11885.174  12102.06  16962.229  
484  0  4713.436  1504.1204  4947.6113  
485  0  4376.6284  -3197.6953  5420.344  
486  0  5132.419  -13278.359  14235.749  
487  0  -4407.161  20146.871  20623.275  
488  0  609.958  5924.0073  5955.326  
489  0  -2223.1265  4236.2334  4784.1367  
490  0  -5866.468  6226.8433  8555.059  
491  0  2853.5742  2005.5419  3487.8481  
492  0  -493.4436  626.7722  797.70294  
493  0  1329.1401  4345.336  4544.0684  
494  0  4297.774  4848.892  6479.3994  
495  0  -569.0879  -555.5564  795.30115  
496  0  -1377.5886  8246.548  8360.819  
497  0  1244.9642  1990.7451  2347.9783  
498  0  -413.15918  -406.7068  579.75073  
499  0  -4473.5776  3682.6895  5794.4023  
500  0  14017.074  -3620.2407  14477.034  
501  0  -105.78125  -1520.9584  1524.6324  
502  0  -4164.963  -1280.3046  4357.3037  
503  0  -10638.8545  -6438.1245  12435.219  
504  0  15213.797  9316.018  17839.502  
505  0  6538.259  8268.102  10540.889  
506  0  4665.0283  8533.332  9725.237  
507  0  3466.7363  10842.739  11383.464  
508  0  -3238.8708  11155.127  11615.814  
509  0  4395.676  -70.186035  4396.2363  
510  0  5654.515  391.56323  5668.0566  
511  0  5413.377  -800.7229  5472.2764  
512  0  -22498.227  3363.6885  22748.287  
513  0  4584.2134  2838.7263  5391.9736  
514  0  1274.648  -203.36475  1290.769  
515  0  -735.4774  728.58984  1035.2634  
516  0  5887.0566  8044.838  9968.794  
517  0  2522.3801  -1717.8257  3051.7742  
518  0  -320.84302  4875.379  4885.925  
519  0  760.33594  6117.449  6164.519  
520  0  -424.72363  2656.2822  2690.0234  
521  0  913.7981  88.60165  918.08344  
522  0  7611.2075  1721.0526  7803.3647  
523  0  6564.7197  899.67993  6626.0825  
524  0  4162.253  2424.6243  4816.965  
525  0  12101.025  12438.227  17353.51  
526  0  -9.027771  -3455.072  3455.084  
527  0  -11.694946  -2162.251  2162.2827  
528  0  805.74414  -949.7822  1245.5159  
529  0  -5754.699  31231.098  31756.857  
530  0  -2481.5322  4478.107  5119.7114  
531  0  -2519.6768  3412.1963  4241.6807  
532  0  -2398.2217  2955.329  3805.9739  
533  0  2825.9375  -2095.5427  3518.1277  
534  0  9005.561  1904.0596  9204.648  
535  4095  5449.3486  2438.6804  5970.139  
536  4095  3711.7148  -874.6135  3813.3682  
537  4095  -5808.712  -12798.868  14055.325  
538  4095  6271.6416  14731.894  16011.314  
539  4095  4831.1606  2976.3167  5674.379  
540  4095  1759.6011  3017.4976  3493.0627  
541  4095  -19.908936  8829.33  8829.353  
542  4095  9235.828  -465.83398  9247.568  
543  4095  -2788.9194  3070.5225  4148.033  
544  4095  -424.74286  4465.8413  4485.994  
545  4095  2730.307  2775.4463  3893.2864  
546  4095  13570.169  10092.609  16911.838  
547  4095  4678.0586  10720.599  11696.813  
548  4095  2853.1206  6821.9053  7394.504  
549  4095  15.509766  5705.33  5705.351  
550  4095  -3243.9277  7995.0635  8628.1  
551  4095  6319.5596  -7792.678  10033.078  
552  4095  640.9801  -933.917  1132.7208  
553  4095  -4506.238  1840.0688  4867.4463  
554  4095  -26170.783  6488.919  26963.232  
555  4095  17332.072  -923.9536  17356.684  
556  4095  8189.6025  1034.7302  8254.711  
557  4095  7281.95  3602.0117  8124.1177  
558  4095  11758.075  8008.984  14226.601  
559  4095  5248.813  6636.877  8461.57  
560  4095  3740.9648  4409.1377  5782.3276  
561  4095  5862.5137  1769.8188  6123.833  
562  4095  6393.276  -3479.7786  7278.931  
563  4095  -7518.2607  13195.412  15186.939  
564  4095  6945.789  3807.4272  7920.889  
565  4095  2726.6667  2759.4302  3879.3254  
566  4095  -122.233154  5095.353  5096.819  
567  4095  9261.757  8510.406  12578.042  
568  4095  -3085.1902  -2637.3076  4058.7917  
569  0  -108.542725  5176.6357  5177.7734  
570  0  2045.4773  9435.751  9654.915  
571  0  -1647.2141  23133.459  23192.031  
572  0  -287.99118  -3936.641  3947.1614  
573  0  3583.73  -2377.233  4300.507  
574  0  4167.1533  -2716.5042  4974.3906  
575  0  6036.424  -3120.1353  6795.12  
576  0  15396.775  1571.7375  15476.79  
577  0  1819.1233  -964.2677  2058.8884  
578  0  -894.8093  -3126.2295  3251.768  
579  0  -5349.664  -7963.706  9593.723  
580  0  18880.773  32829.848  37871.92  
581  0  4691.1333  7778.9277  9083.967  
582  0  1722.2526  8211.014  8389.689  
583  0  1187.9331  10559.016  10625.629  
584  0  4155.3096  90.34546  4156.2915  
585  0  1917.1406  2753.4534  3355.1355  
586  0  5445.8184  3886.4106  6690.376  
587  0  6216.414  2078.4531  6554.676  
588  0  -3684.7126  1711.1448  4062.65  
589  0  6257.7017  8568.524  10610.299  
590  0  2368.2268  1722.5767  2928.4412  
591  0  -162.67648  1998.3066  2004.9172  
592  0  1422.1583  6721.1416  6869.955  
593  0  6099.627  -7703.0605  9825.609  
594  0  -2154.992  4682.5967  5154.6777  
595  0  -3487.5286  6771.402  7616.7407  
596  0  -8987.912  6501.2485  11092.736  
597  0  31975.43  -3304.5662  32145.734  
598  0  13281.09  5149.6475  14244.515  
599  0  10410.451  6222.3105  12128.258  
600  0  9448.813  8155.47  12481.657  
601  0  3582.8176  9618.067  10263.713  
602  0  1713.6077  -1986.4214  2623.4177  
603  0  2385.7144  151.02124  2390.4895  
604  0  -67.27466  2832.1365  2832.9353  
605  0  -19869.477  30963.938  36790.78  
606  0  9974.883  -4071.2158  10773.722  
607  0  3414.0378  -124.78784  3416.3176  
608  0  3396.5073  2645.7373  4305.367  
609  0  12585.21  2636.6365  12858.436  
610  0  2483.9297  462.80103  2526.676  
611  0  5295.964  6350.6055  8269.064  
612  0  6236.084  5167.654  8098.9746  
613  0  2538.264  2635.773  3659.246  
614  0  3073.1804  -48.905807  3073.5696  
615  0  8252.459  -2131.5095  8523.287  
616  0  6044.977  -553.3865  6070.254  
617  0  5582.6807  3200.4653  6435.0063  
618  0  14057.023  3671.108  14528.487  
619  0  -3646.4683  2282.1582  4301.741  
620  0  272.98193  4708.1104  4716.0176  
621  0  4354.043  7436.6035  8617.469  
622  0  27206.174  41069.402  49263.29  
623  0  -2467.7085  1050.2214  2681.893  
624  0  -468.1123  2413.151  2458.1348  
625  0  166.98267  1791.5471  1799.3121  
626  0  1491.4993  -5225.914  5434.588  
627  0  6918.603  -3767.684  7877.9766  
628  0  2837.2004  -328.479  2856.152  
629  4095  -1970.7703  -1101.0513  2257.4875  
630  4095  -17022.533  -2410.6982  17192.385  
631  4095  28539.957  12665.165  31223.957  
632  4095  8417.136  2875.2134  8894.663  
633  4095  5816.714  5441.5303  7965.2  
634  4095  8445.102  9583.291  12773.379  
635  4095  6047.601  -2610.6897  6587.0464  
636  4095  1909.0304  7782.2905  8013.017  
637  4095  5648.8853  5698.713  8024.041  
638  4095  7530.355  1870.4136  7759.1685  
639  4095  22942.768  -624.30347  22951.26  
640  4095  7756.6064  8146.3604  11248.473  
641  4095  3625.5325  5886.191  6913.1562  
642  4095  948.0083  7018.925  7082.6567  
643  4095  699.6548  8652.439  8680.682  
644  4095  -2792.9397  -4795.286  5549.3496  
645  4095  -1689.1904  6741.04  6949.4595  
646  4095  -3624.063  13401.249  13882.626  
647  4095  -15928.306  32510.785  36203.066  
648  4095  25542.916  -27835.76  37779.23  
649  4095  11983.006  -6089.033  13441.308  
650  4095  11834.06  -1757.2183  11963.811  
651  4095  16119.541  -684.9273  16134.086  
652  4095  7548.7217  3342.621  8255.685  
653  4095  5195.345  2149.446  5622.431  
654  4095  4859.496  -327.84497  4870.5425  
655  4095  2133.525  -1558.0793  2641.8818  
656  4095  6066.731  31256.904  31840.215  
657  4095  7599.1914  -721.01636  7633.3203  
658  4095  3926.5737  3463.6096  5235.8926  
659  4095  4446.677  6943.4863  8245.298  
660  4095  11901.575  1861.2535  12046.234  
661  4095  -1965.1318  4781.881  5169.9253  
662  4095  7268.705  8384.894  11096.869  
663  0  11765.799  10206.136  15575.598  
664  0  19095.016  23477.889  30262.7  
665  0  -11228.534  -12554.73  16843.434  
666  0  -944.8043  -6768.362  6833.987  
667  0  422.97192  -5158.6074  5175.919  
668  0  2745.5908  -5011.367  5714.199  
669  0  9608.992  -5002.6353  10833.24  
670  0  -1389.3513  3061.0515  3361.5967  
671  0  -2357.3547  3361.9243  4106.0513  
672  0  -3992.317  3597.3896  5373.9937  
673  0  67503.53  20365.48  70508.72  
674  0  5714.5615  5319.188  7807.0464  
675  0  5205.2476  7388.017  9037.555  
676  0  6096.5205  8001.24  10059.195  
677  0  279.2622  -1946.5515  1966.4817  
678  0  2307.4895  2681.7236  3537.8171  
679  0  4763.071  1684.0043  5052.001  
680  0  2474.9695  1466.2958  2876.7163  
681  0  -7773.8535  10480.457  13048.86  
682  0  14391.043  2213.597  14560.293  
683  0  3173.0198  2195.5498  3858.561  
684  0  2231.7847  4817.2646  5309.134  
685  0  6945.091  6103.2725  9245.768  
686  0  -66.869385  -3638.4504  3639.065  
687  0  3687.58  10540.518  11166.949  
688  0  4438.452  10745.875  11626.422  
689  0  1600.1365  11322.973  11435.478  
690  0  36922.88  -47589.676  60233.51  
691  0  13598.314  -464.62866  13606.25  
692  0  10965.77  2869.4688  11334.988  
693  0  10336.825  5727.964  11817.763  
694  0  5246.4375  10048.988  11336.1045  
695  0  -1600.4043  4647.8633  4915.6816  
696  0  2269.346  8902.345  9187.038  
697  0  4049.6248  17375.531  17841.203  
698  0  12602.403  65381.164  66584.664  
699  0  1374.1067  -30883.893  30914.447  
700  0  2394.3735  -7907.0713  8261.646  
701  0  5427.3154  -3478.2542  6446.2397  
702  0  11241.485  -8279.083  13961.168  
703  0  2809.4714  361.2605  2832.6028  
704  0  8455.685  1938.1797  8674.973  
705  0  7149.6846  494.813  7166.7866  
706  0  2498.68  1417.4213  2872.7139  
707  0  2626.932  -964.854  2798.52  
708  0  5581.324  -3988.414  6859.929  
709  0  5722.373  315.2793  5731.052  
710  0  8860.584  3704.414  9603.782  
711  0  13078.932  -708.5161  13098.108  
712  0  3034.537  10186.025  10628.43  
713  0  11654.464  8187.1724  14242.764  
714  0  22239.105  7669.164  23524.326  
715  0  84921.266  18757.527  86968.19  
716  0  -30375.887  1134.3184  30397.059  
717  0  -11712.424  2499.5425  11976.167  
718  0  -8061.076  1978.7285  8300.38  
719  0  -9547.346  -3216.1807  10074.504  
720  0  -3068.6553  -2063.617  3697.9941  
721  0  -4197.1875  4714.374  6312.0283  
722  0  -8424.072  8404.446  11899.567  
723  41  -20423.379  18505.482  27560.248  
724  4095  70858.87  -30327.627  77076.23  
725  4095  12911.78  -2155.9487  13090.538  
726  4095  11117.103  2724.2483  11446.025  
727  4095  14097.012  3535.7673  14533.664  
728  4095  2400.4753  -1803.4419  3002.4465  
729  4095  8177.5845  6824.8887  10651.385  
730  4095  9250.428  1202.8401  9328.303  
731  4095  8789.432  -3993.1365  9653.976  
732  4095  23314.21  -26049.766  34959.156  
733  4095  5597.033  16875.186  17779.164  
734  4095  3020.7654  13764.239  14091.817  
735  4095  3153.249  15378.796  15698.736  
736  4095  4413.71  15301.632  15925.476  
737  4095  -3710.9731  11051.822  11658.22  
738  4095  7136.5674  20490.82  21698.025  
739  4095  11070.594  29020.01  31059.926  
740  4095  17437.84  59031.01  61552.73  
741  4095  -18370.873  -118352.94  119770.23  
742  4095  2836.7224  -22881.055  23056.229  
743  4095  7170.8447  -11937.806  13925.955  
744  4095  10875.63  -9585.258  14496.775  
745  4095  6798.6074  2825.1494  7362.237  
746  4095  5780.9014  3708.7944  6868.3315  
747  4095  6556.5166  4385.1  7887.776  
748  4095  9919.714  9938.221  14041.687  
749  4095  70187.14  58791.043  91556.66  
750  4095  -7429.9233  -12478.566  14523.029  
751  4095  1410.7915  28.387695  1411.077  
752  4095  6885.111  2917.4165  7477.705  
753  4095  9043.9  -4768.437  10223.998  
754  4095  5775.535  7949.906  9826.383  
755  4095  17370.71  3653.4429  17750.754  
756  4095  25152.744  2881.6873  25317.28  
757  4095  52968.43  8743.799  53685.273  
758  0  -89094.89  -3239.5295  89153.766  
759  0  -22898.021  -1842.1204  22972.0  
760  0  -11995.968  -197.79443  11997.599  
761  0  -5268.341  -940.09644  5351.56  
762  0  2026.6731  -2627.5159  3318.3193  
763  0  3039.777  9003.175  9502.495  
764  0  8216.219  5780.161  10045.721  
765  0  20233.71  -1406.019  20282.504  
766  0  211765.84  -122586.305  244687.9  
767  0  -28658.625  30224.148  41651.12  
768  0  -11460.03  21718.723  24556.775  
769  0  -6812.2866  18905.61  20095.504  
770  0  -15794.753  15772.74  22321.594  
771  0  -7098.3105  18429.955  19749.664  
772  0  -5834.9805  19119.93  19990.465  
773  0  -8139.4844  26908.139  28112.26  
774  0  -15366.483  61283.9  63181.047  
775  0  28207.637  -51731.375  58922.03  
776  0  6360.056  -2813.5667  6954.6006  
777  0  6921.755  5496.176  8838.475  
778  0  10552.008  5067.1396  11705.587  
779  0  356.98315  6567.16  6576.8555  
780  0  13223.079  12467.011  18173.502  
781  0  12286.281  8306.098  14830.508  
782  0  7779.866  -1334.238  7893.4473  
783  0  -90652.1  -355314.66  366696.47  
784  0  30113.568  47882.098  56564.32  
785  0  29480.154  41841.035  51183.51  
786  0  34717.758  45377.348  57135.16  
787  0  40254.79  56456.24  69337.98  
788  0  47045.38  65131.85  80345.664  
789  0  78387.375  83303.35  114385.44  
790  0  141691.72  129965.34  192269.44  
791  0  439511.7  352255.38  563253.4  
792  0  -523927.53  -373191.78  643251.25  
793  0  -177768.69  -109452.92  208762.19  
794  0  -112454.734  -62077.62  128451.15  
795  0  -87461.12  -47883.227  99710.836  
796  0  -73413.91  -21990.654  76636.75  
797  0  -62532.344  -17583.596  64957.5  
798  0  -61158.67  -10993.056  62138.8  
799  0  -61427.848  -1993.3303  61460.18  
