n v(n)    Re(T)       Im(T)        Mod(T) 
   
0  0  1475263.0  0.0  1475263.0  
1  0  26857.55  -16.869274  26857.557  
2  0  31336.16  -13047.345  33943.9  
3  0  34651.125  -11332.6875  36457.24  
4  0  33204.227  -18525.291  38022.457  
5  0  36953.402  -26320.146  45368.535  
6  0  43196.734  -37888.117  57458.395  
7  0  52806.31  -55503.184  76610.11  
8  0  77324.33  -93745.2  121520.43  
9  0  140295.11  -231862.25  271003.34  
10  0  -424113.28  844342.0  944873.25  
11  0  -70634.164  159112.12  174085.77  
12  0  -25979.193  99492.414  102828.3  
13  0  -14016.152  73138.984  74469.88  
14  0  -5598.0034  60375.85  60634.816  
15  0  61.100586  53007.457  53007.492  
16  0  4258.203  48857.555  49042.766  
17  0  15384.371  51044.527  53312.5  
18  0  18065.002  67678.91  70048.4  
19  0  64808.027  112072.28  129461.49  
20  0  -68129.46  -84852.91  108819.3  
21  0  -19544.85  -12579.564  23243.205  
22  0  -3947.4143  -3189.4539  5074.9087  
23  0  1348.4253  5687.1406  5844.8115  
24  0  5186.518  5506.7827  7564.696  
25  0  10165.777  5562.5444  11588.138  
26  0  18849.52  4960.971  19491.424  
27  0  28487.701  5619.2363  29036.613  
28  4095  57375.38  5799.0166  57667.695  
29  4095  242991.27  -18858.23  243721.94  
30  4095  -121034.086  26087.479  123813.59  
31  4095  -46952.848  5335.2515  47254.996  
32  4095  -29677.176  12574.944  32231.414  
33  4095  -23765.223  10641.111  26038.799  
34  4095  -18948.293  10692.982  21757.244  
35  4095  -15795.385  10774.794  19120.418  
36  4095  -13944.111  8890.025  16536.951  
37  4095  -7719.3047  14611.496  16525.238  
38  4095  -24513.451  21037.742  32303.188  
39  4095  -72187.945  166239.19  181236.22  
40  4095  -2709.297  -11441.832  11758.223  
41  4095  -4948.7803  -2827.6997  5699.6763  
42  4095  -2738.751  -1389.9111  3071.2554  
43  4095  -5058.5425  1357.7844  5237.5977  
44  4095  -5239.8867  505.15454  5264.18  
45  4095  -5738.4043  -1236.3584  5870.0825  
46  4095  -2677.9714  -1054.6687  2878.169  
47  4095  -7479.7188  -2724.272  7960.3926  
48  4095  -13257.19  -10978.257  17212.646  
49  4095  80568.18  96154.414  125446.81  
50  4095  2588.8064  15685.737  15897.933  
51  4095  11684.878  5765.0693  13029.673  
52  4095  8269.887  8738.59  12031.375  
53  4095  7990.9194  5366.318  9625.6  
54  4095  9152.428  4266.532  10098.031  
55  4095  11688.284  3652.39  12245.649  
56  4095  17970.455  229.85352  17971.924  
57  4095  32773.023  7112.3086  33535.89  
58  4095  64691.164  -14322.666  66257.72  
59  4095  -121922.98  31959.994  126042.266  
60  4095  -31960.6  6823.3174  32680.844  
61  4095  -19348.67  7267.5386  20668.531  
62  4095  -12153.99  6293.828  13686.919  
63  4095  -10542.949  5438.149  11862.851  
64  718  -8796.334  4151.798  9726.917  
65  0  -6927.6855  250.2367  6932.2036  
66  0  -2512.3743  3133.2974  4016.1643  
67  0  -7322.5913  -1370.6191  7449.761  
68  0  3842.3408  -24009.035  24314.55  
69  0  -8001.7295  28703.393  29797.86  
70  0  -11467.369  8599.489  14333.589  
71  0  -1470.3027  9039.134  9157.933  
72  0  -4044.6077  10592.352  11338.287  
73  0  -2586.702  9009.709  9373.68  
74  0  -1380.6428  8275.438  8389.818  
75  0  232.10913  9092.5205  9095.482  
76  0  4995.491  8937.212  10238.588  
77  0  7350.463  27006.818  27989.24  
78  0  85604.0  87890.19  122689.57  
79  0  -27988.498  -12831.038  30789.47  
80  0  -7754.0283  -6337.911  10014.692  
81  0  -7735.217  -1640.0664  7907.174  
82  0  -5954.708  44.7854  5954.8765  
83  0  -5632.1455  582.1438  5662.1514  
84  0  -5699.2324  886.02954  5767.6943  
85  0  -1920.001  -2216.9385  2932.7837  
86  0  -456.85498  5512.968  5531.8647  
87  0  -8226.525  -3385.1785  8895.794  
88  0  -13389.199  2898.6401  13699.371  
89  0  -5050.6494  3380.0767  6077.333  
90  0  -4359.7524  -4791.9785  6478.4644  
91  0  -202.17285  -999.29565  1019.54193  
92  0  -3087.53  -1656.4368  3503.8015  
93  0  -2689.832  -2780.994  3868.995  
94  0  -1442.7009  -5345.625  5536.885  
95  0  -122.89697  -6627.5547  6628.694  
96  0  5286.662  -13115.334  14140.749  
97  0  -1222.2463  -28601.883  28627.986  
98  0  -15354.284  91211.42  92494.74  
99  0  -11719.351  16666.447  20374.338  
100  0  -728.45557  13631.653  13651.103  
101  0  -2373.3672  11060.556  11312.328  
102  0  -1514.0383  9466.57  9586.88  
103  0  -1098.5156  8558.595  8628.806  
104  0  -1930.1252  7645.315  7885.19  
105  0  5159.6035  7139.5933  8808.819  
106  0  3132.3325  20924.676  21157.826  
107  0  19140.447  17072.418  25648.084  
108  0  -22778.975  -12385.84  25928.568  
109  0  -10423.454  -1213.5269  10493.857  
110  4095  -5074.3857  -2685.6477  5741.262  
111  4095  -2597.2483  1746.9651  3130.1096  
112  4095  -2772.9155  807.6902  2888.1523  
113  4095  -2429.9492  143.05981  2434.1567  
114  4095  995.906  -1862.7737  2112.2866  
115  4095  2268.4675  -223.93701  2279.4941  
116  4095  10756.921  -1140.4385  10817.206  
117  4095  51264.754  -24263.61  56716.82  
118  4095  -25002.863  16759.889  30100.45  
119  4095  -12665.543  -1709.094  12780.336  
120  4095  -6557.0234  4226.1045  7800.9307  
121  4095  -7306.6816  3312.467  8022.47  
122  4095  -6137.537  3086.303  6869.8345  
123  4095  -5212.7676  2790.8555  5912.852  
124  4095  -5764.457  106.97461  5765.4497  
125  4095  2021.389  1792.8552  2701.9148  
126  4095  -14570.775  9892.313  17611.512  
127  4095  -7898.2812  60615.086  61127.5  
128  4095  -6535.7656  -1319.9827  6667.7275  
129  4095  -5092.7427  791.38916  5153.8647  
130  4095  -3337.7168  -380.53198  3359.3389  
131  4095  -4334.998  1870.354  4721.2744  
132  4095  -4751.458  1417.468  4958.384  
133  4095  -6100.2236  -165.09424  6102.457  
134  4095  -1964.6007  -804.32886  2122.8757  
135  4095  -6231.0923  1066.7002  6321.7373  
136  4095  -9698.119  -3293.2107  10242.009  
137  4095  31173.957  19599.617  36823.37  
138  4095  -3075.252  7355.5186  7972.5044  
139  4095  3723.963  -1766.229  4121.585  
140  4095  2835.5977  2677.19  3899.7385  
141  4095  1611.2697  761.3286  1782.0806  
142  4095  1752.9182  120.21802  1757.0358  
143  4095  3056.6506  -211.80273  3063.98  
144  4095  5717.75  -4009.2712  6983.3315  
145  4095  19008.979  1472.4521  19065.922  
146  0  21761.06  -17819.795  28126.3  
147  0  -43755.566  27799.281  51839.656  
148  0  -14994.027  4264.7954  15588.757  
149  0  -9593.128  5123.676  10875.668  
150  0  -6322.5083  3721.559  7336.4917  
151  0  -6195.645  3541.624  7136.464  
152  0  -6071.7915  3167.576  6848.371  
153  0  -6598.9043  -574.79297  6623.8906  
154  0  -1027.6027  2336.1167  2552.138  
155  0  -9130.773  3650.6987  9833.546  
156  0  -4093.284  -7703.737  8723.677  
157  0  -982.60596  9658.131  9707.986  
158  0  -9188.153  2600.187  9548.986  
159  0  -1262.2273  1392.6836  1879.5706  
160  0  -3008.579  4335.174  5276.863  
161  0  -2732.8774  3189.6204  4200.2734  
162  0  -2716.4097  2026.0737  3388.784  
163  0  -1720.4927  2144.3096  2749.2104  
164  0  503.34998  -515.24634  720.3055  
165  0  4247.328  15327.735  15905.322  
166  0  50817.367  26272.203  57206.938  
167  0  -15430.88  1320.5667  15487.283  
168  0  -3780.435  -2996.7397  4824.1206  
169  0  -4348.2734  385.74194  4365.3496  
170  0  -3452.2212  769.93164  3537.0364  
171  0  -3367.4084  1013.62866  3516.658  
172  0  -3978.7158  1486.6448  4247.3867  
173  0  -1648.8904  -3414.8457  3792.0984  
174  0  3495.2163  4290.1543  5533.7114  
175  0  -9590.02  -2561.4895  9926.213  
176  0  -12125.704  5528.997  13326.759  
177  0  -4539.4443  3101.8486  5498.0015  
178  0  -6266.523  -3144.6401  7011.2817  
179  0  -1641.3751  -1494.5212  2219.8438  
180  0  -3984.6172  -900.719  4085.1523  
181  0  -4221.806  -1387.3987  4443.931  
182  0  -3936.911  -4067.6125  5660.807  
183  0  -2541.5522  -4458.0234  5131.614  
184  0  775.44214  -10846.279  10873.964  
185  0  -9247.076  -15914.147  18405.666  
186  0  5962.5625  44715.785  45111.566  
187  0  -8207.283  9558.75  12598.777  
188  0  757.48303  6312.931  6358.2134  
189  0  -1225.0305  6034.7393  6157.8223  
190  0  -1015.26685  4975.5005  5078.0283  
191  0  -926.9066  4538.0273  4631.722  
192  4095  -2589.2573  4395.9746  5101.847  
193  4095  3781.2957  1103.3574  3938.984  
194  4095  6041.8057  17535.895  18547.533  
195  4095  14421.499  5208.2007  15333.134  
196  4095  -16998.719  -3028.82  17266.447  
197  4095  -8277.633  682.6904  8305.737  
198  4095  -5735.4126  -1854.8511  6027.8877  
199  4095  -2814.3325  894.3992  2953.0352  
200  4095  -3376.5989  485.53418  3411.3286  
201  4095  -4214.499  210.81348  4219.768  
202  4095  -2118.4321  -2967.5005  3646.0684  
203  4095  -1134.1558  -296.7556  1172.3367  
204  4095  3794.2644  -2245.7117  4409.0435  
205  4095  20466.713  -22735.797  30590.893  
206  4095  -9437.026  12510.259  15670.482  
207  4095  -9231.628  -2324.0151  9519.664  
208  4095  -3221.2437  1524.7261  3563.8743  
209  4095  -4654.408  1557.9805  4908.24  
210  4095  -4123.658  1213.3787  4298.4697  
211  4095  -3523.4463  668.572  3586.3162  
212  4095  -5370.0396  -1857.7083  5682.2886  
213  4095  3306.2043  -4133.1025  5292.7803  
214  4095  -12084.032  10513.499  16017.412  
215  4095  5824.1816  37819.754  38265.586  
216  4095  -6568.01  1683.1404  6780.244  
217  4095  -4259.7876  1918.9314  4672.0537  
218  4095  -3523.335  168.74194  3527.3733  
219  4095  -3574.3193  1988.3789  4090.1602  
220  4095  -3844.8296  2037.6515  4351.4062  
221  4095  -6081.3174  989.19165  6161.243  
222  4095  -1549.8909  -1463.0125  2131.3298  
223  4095  -4563.341  3133.7568  5535.7485  
224  4095  -8594.437  -1358.427  8701.13  
225  4095  16816.842  3244.2373  17126.916  
226  4095  -3084.88  5730.8584  6508.3965  
227  4095  132.28833  -3598.483  3600.9136  
228  0  1257.861  396.5381  1318.8846  
229  0  -195.80096  -534.5056  569.2401  
230  0  -515.45447  -926.7898  1060.4869  
231  0  626.1898  -1404.3115  1537.597  
232  0  1377.1073  -5282.6035  5459.1504  
233  0  17144.244  -3289.3499  17456.945  
234  0  8092.457  -18114.283  19839.736  
235  0  -20888.008  24257.207  32011.264  
236  0  -10629.4  3633.6074  11233.311  
237  0  -6385.8213  4237.368  7663.811  
238  0  -4653.618  2632.7463  5346.7295  
239  0  -4608.645  2631.88  5307.2026  
240  0  -4742.469  2963.467  5592.24  
241  0  -7117.1694  -407.01685  7128.7983  
242  0  154.12537  707.6987  724.2873  
243  0  -8575.707  7688.1367  11517.387  
244  0  -4844.7876  -2195.335  5318.9717  
245  0  -402.79016  3762.8416  3784.3384  
246  0  -8243.432  2325.958  8565.293  
247  0  -2347.372  -876.01465  2505.5054  
248  0  -2728.003  2207.7974  3509.4685  
249  0  -2897.4006  1538.3047  3280.4436  
250  0  -3825.127  326.73877  3839.0564  
251  0  -2926.2278  -42.197998  2926.532  
252  0  -2918.5312  -3600.0093  4634.425  
253  0  5168.627  11460.672  12572.259  
254  0  36424.82  5012.843  36768.14  
255  0  -9085.68  5242.6865  10489.772  
256  0  -2882.8633  -2623.3315  3897.7903  
257  0  -2763.7915  469.63818  2803.4092  
258  0  -2295.5747  415.11816  2332.8064  
259  0  -2088.7786  515.32153  2151.407  
260  0  -2653.8335  1464.0872  3030.9045  
261  0  -2285.3594  -4662.1504  5192.1587  
262  0  7241.2646  1231.5566  7345.2466  
263  0  -11050.191  -999.5156  11095.304  
264  0  -10173.703  7671.384  12741.835  
265  0  -4212.398  2853.1233  5087.692  
266  0  -7093.457  -1337.8953  7218.5244  
267  0  -2806.382  -1638.3662  3249.6191  
268  0  -4245.1333  -459.8999  4269.972  
269  0  -4641.927  -284.05005  4650.6094  
270  0  -5443.7227  -3111.671  6270.296  
271  0  -3440.4922  -3503.943  4910.662  
272  0  -2220.178  -10459.083  10692.128  
273  0  -11972.05  -9436.816  15244.13  
274  4095  11666.159  24528.414  27161.412  
275  4095  -6385.463  7572.7197  9905.565  
276  4095  637.64355  2700.3567  2774.6199  
277  4095  -805.0775  3577.875  3667.3342  
278  4095  -930.9845  2822.9119  2972.4678  
279  4095  -896.0001  2564.5164  2716.5347  
280  4095  -2792.942  3383.9897  4387.7  
281  4095  1979.8264  -2495.329  3185.3384  
282  4095  11317.889  15510.177  19200.525  
283  4095  11791.65  -967.4822  11831.273  
284  4095  -13302.969  1383.501  13374.717  
285  4095  -6659.135  1398.7617  6804.455  
286  4095  -5874.8184  -958.9612  5952.571  
287  4095  -2880.2053  284.40454  2894.213  
288  4095  -3268.2422  249.1914  3277.7283  
289  4095  -4661.575  801.1177  4729.9126  
290  4095  -4065.445  -3343.574  5263.7754  
291  4095  -1965.3171  -44.87378  1965.8293  
292  4095  390.59912  -2498.1545  2528.506  
293  4095  6480.6646  -19714.693  20752.545  
294  4095  -3047.7986  8578.08  9103.435  
295  4095  -8487.847  -1868.1416  8691.001  
296  4095  -2490.3218  -370.1184  2517.6755  
297  4095  -3701.8677  344.73608  3717.8848  
298  4095  -3528.7495  15.714111  3528.7844  
299  4095  -3165.8071  -853.7136  3278.8965  
300  4095  -6025.7607  -2748.3228  6622.9204  
301  4095  1961.3257  -9634.39  9832.002  
302  4095  -9379.995  12684.59  15776.03  
303  4095  12066.205  25337.328  28063.74  
304  4095  -5605.99  3613.4734  6669.6562  
305  4095  -3195.839  2361.3862  3973.6045  
306  4095  -3349.819  684.15894  3418.9707  
307  4095  -2817.8914  1891.4033  3393.806  
308  4095  -2652.4497  2233.299  3467.4363  
309  4095  -5532.723  2193.1404  5951.5454  
310  0  -1468.6443  -2450.1553  2856.6023  
311  0  -1774.4492  4483.492  4821.864  
312  0  -8011.177  -497.61792  8026.6167  
313  0  8337.1  -2750.444  8779.076  
314  0  -2397.004  4663.452  5243.416  
315  0  -2464.2124  -3850.2896  4571.3315  
316  0  -15.3342285  -1053.9917  1054.1033  
317  0  -1246.5787  -1213.0308  1739.3683  
318  0  -1871.4387  -1226.0645  2237.3013  
319  0  -841.9878  -2050.7388  2216.861  
320  0  -1594.0078  -5491.312  5717.9863  
321  0  16513.777  -9077.581  18844.291  
322  0  46.595947  -17032.309  17032.373  
323  0  -8997.803  19961.516  21895.72  
324  0  -8505.516  3382.5037  9153.422  
325  0  -4589.6597  3294.3477  5649.575  
326  0  -3867.5596  1774.2708  4255.121  
327  0  -3783.7236  1720.405  4156.484  
328  0  -3645.7192  2554.3445  4451.5103  
329  0  -7688.9556  189.30151  7691.2856  
330  0  612.0996  -1747.5205  1851.6193  
331  0  -6198.303  11812.033  13339.531  
332  0  -3822.167  607.1687  3870.0923  
333  0  -1028.0005  1173.1113  1559.7998  
334  0  -7108.704  2832.7358  7652.324  
335  0  -3507.0645  -1539.5552  3830.1084  
336  0  -2763.5154  982.49304  2932.9695  
337  0  -2963.2573  757.7162  3058.599  
338  0  -4797.5596  -76.81995  4798.175  
339  0  -4059.964  -1062.5186  4196.696  
340  0  -6348.503  -4477.2686  7768.4893  
341  0  7123.1245  8548.758  11127.451  
342  0  26372.273  -5950.128  27035.178  
343  0  -4385.1577  5975.0283  7411.516  
344  0  -2732.9006  -2738.086  3868.5735  
345  0  -1753.8105  -139.3374  1759.3369  
346  0  -1581.0271  -335.57312  1616.2476  
347  0  -1262.0264  -470.64832  1346.9299  
348  0  -1353.1504  845.64404  1595.6598  
349  0  -3406.6614  -5729.7954  6666.0254  
350  0  10421.406  -4073.8577  11189.371  
351  0  -12208.633  1439.6819  12293.227  
352  0  -7747.0713  9187.236  12017.589  
353  0  -4021.8975  2777.227  4887.6016  
354  0  -7120.435  402.61584  7131.8086  
355  0  -3789.4128  -1349.2181  4022.4421  
356  4095  -4313.141  -145.6726  4315.6  
357  4095  -4448.5938  659.4918  4497.212  
358  4095  -6518.5156  -1923.6747  6796.438  
359  4095  -3827.0193  -2988.9028  4855.885  
360  4095  -5023.641  -10076.967  11259.762  
361  4095  -12662.959  -4868.3213  13566.542  
362  4095  12292.899  12260.611  17361.969  
363  4095  -4826.249  6605.5435  8180.824  
364  4095  -182.5542  471.3755  505.49072  
365  4095  -821.5901  1830.1079  2006.0671  
366  4095  -1127.3523  1381.2958  1782.9474  
367  4095  -1147.7795  1165.916  1636.0801  
368  4095  -2793.8577  2959.0417  4069.5906  
369  4095  -703.68945  -4889.7607  4940.1353  
370  4095  18139.482  12142.655  21828.535  
371  4095  9417.445  -5253.158  10783.504  
372  4095  -9842.323  3713.7573  10519.663  
373  4095  -5282.7505  1474.7186  5484.7285  
374  4095  -5536.626  -244.37701  5542.0166  
375  4095  -2939.2217  -236.66736  2948.7344  
376  4095  -2991.5972  -210.55768  2998.998  
377  4095  -4356.086  1363.1084  4564.378  
378  4095  -5695.006  -3272.1526  6568.1104  
379  4095  -1738.6931  -166.3227  1746.6301  
380  4095  -2005.0472  -2030.1094  2853.3416  
381  4095  -1508.1868  -15929.682  16000.918  
382  4095  -213.2312  4921.0225  4925.64  
383  4095  -8133.6157  -1040.4486  8199.893  
384  4095  -2799.5146  -1717.6648  3284.4565  
385  4095  -3473.395  -732.8598  3549.867  
386  4095  -3503.7737  -938.5203  3627.2925  
387  4095  -3550.6277  -2162.0806  4157.1084  
388  4095  -7084.381  -3175.8381  7763.6587  
389  4095  -1910.6079  -14990.642  15111.907  
390  4095  -5512.4453  15080.692  16056.598  
391  4095  15159.31  16291.468  22253.463  
392  0  -3916.1704  4890.6636  6265.3794  
393  0  -2062.255  2364.516  3137.4883  
394  0  -2805.1863  1075.0146  3004.1182  
395  0  -2070.7202  1625.6145  2632.5852  
396  0  -1331.7019  1912.5612  2330.5193  
397  0  -4350.5024  3230.6362  5418.845  
398  0  -1761.4004  -3574.029  3984.4968  
399  0  2407.2505  4672.0254  5255.728  
400  0  -7816.9805  -14.018577  7816.993  
401  0  2419.4758  -4670.9136  5260.3516  
402  0  -1773.1846  3560.4038  3977.519  
403  0  -4340.924  -3256.3914  5426.5737  
404  0  -1324.7822  -1920.9486  2333.472  
405  0  -2064.7202  -1635.0198  2633.6968  
406  0  -2799.4768  -1089.4279  3003.9846  
407  0  -2054.4082  -2378.5508  3142.944  
408  0  -3896.859  -4907.1973  6266.2666  
409  0  15190.432  -16262.171  22253.256  
410  0  -5490.302  -15060.954  16030.463  
411  0  -1952.2417  14999.321  15125.835  
412  0  -7094.9893  3161.8757  7767.646  
413  0  -3554.3955  2156.399  4157.377  
414  0  -3507.9937  929.7051  3629.1006  
415  0  -3477.2617  721.0137  3551.2266  
416  0  -2806.1323  1711.9193  3287.103  
417  0  -8130.0215  1020.5291  8193.822  
418  0  -199.14746  -4913.8994  4917.933  
419  0  -1536.2664  15925.45  15999.378  
420  0  -2020.3615  2014.3889  2853.0024  
421  0  -1742.5063  151.34137  1749.0662  
422  0  -5700.6523  3249.6208  6561.8193  
423  0  -4350.8584  -1381.0605  4564.7886  
424  0  -2988.361  198.62097  2994.9543  
425  0  -2934.1636  221.7201  2942.5288  
426  0  -5526.0464  227.29095  5530.7188  
427  0  -5270.657  -1493.2173  5478.095  
428  0  -9819.06  -3744.629  10508.861  
429  0  9429.1875  5264.638  10799.352  
430  0  18162.385  -12111.005  21829.994  
431  0  -723.4995  4886.999  4940.264  
432  0  -2796.702  -2969.6006  4079.224  
433  0  -1152.4629  -1169.8818  1642.1919  
434  0  -1135.7661  -1396.4081  1799.9778  
435  0  -820.2351  -1839.6864  2014.2571  
436  0  -185.12817  -478.10535  512.696  
437  1975  -4816.049  -6620.8633  8187.195  
438  4095  12302.672  -12228.015  17345.895  
439  4095  -12689.048  4857.9473  13587.185  
440  4095  -5047.0264  10064.705  11259.253  
441  4095  -3841.796  2970.3113  4856.145  
442  4095  -6524.86  1898.0657  6795.3257  
443  4095  -4445.024  -680.66064  4496.8364  
444  4095  -4316.4287  132.7738  4318.47  
445  4095  -3787.3333  1334.5922  4015.5981  
446  4095  -7114.83  -426.97742  7127.6304  
447  4095  -4020.865  -2789.1804  4893.555  
448  4095  -7722.461  -9207.628  12017.3545  
449  4095  -12193.636  -1456.2222  12280.282  
450  4095  10428.417  4111.485  11209.647  
451  4095  -3414.1653  5717.341  6659.1675  
452  4095  -1349.4873  -855.3268  1597.7172  
453  4095  -1254.9912  463.06274  1337.6958  
454  4095  -1572.6016  324.33936  1605.6998  
455  4095  -1747.8335  130.87415  1752.7264  
456  4095  -2741.5498  2721.5664  3863.0325  
457  4095  -4348.9883  -5991.21  7403.2627  
458  4095  26378.232  5990.1943  27049.834  
459  4095  7120.5693  -8542.525  11121.027  
460  4095  -6374.375  4460.226  7779.8633  
461  4095  -4067.8809  1047.7362  4200.6436  
462  4095  -4802.3755  58.8584  4802.7363  
463  4095  -2964.2368  -774.34863  3063.7095  
464  4095  -2773.2969  -1000.22815  2948.1575  
465  4095  -3520.7517  1523.2933  3836.159  
466  4095  -7099.6377  -2856.4595  7652.726  
467  4095  -1018.2776  -1174.5295  1554.4803  
468  4095  -3823.3743  -622.5405  3873.7253  
469  4095  -6177.0225  -11827.53  13343.391  
470  4095  607.2959  1760.5442  1862.3436  
471  4095  -7688.4707  -209.48364  7691.3237  
472  4095  -3634.5256  -2559.424  4445.2705  
473  4095  -3775.8535  -1727.4348  4152.24  
474  0  -3860.4033  -1795.1553  4257.3813  
475  0  -4578.526  -3307.6924  5648.3384  
476  0  -8497.214  -3400.1047  9152.232  
477  0  -8933.064  -19954.904  21863.162  
478  0  29.345947  17054.805  17054.83  
479  0  16509.709  9104.578  18853.748  
480  0  -1604.78  5485.911  5715.815  
481  0  -845.0769  2042.5803  2210.495  
482  0  -1880.8419  1211.6316  2237.3237  
483  0  -1242.9021  1199.824  1727.5367  
484  0  -16.266846  1041.6465  1041.7734  
485  0  -2471.5522  3837.7654  4564.758  
486  0  -2382.1047  -4674.09  5246.0977  
487  0  8329.637  2771.3167  8778.556  
488  0  -8014.9463  473.97607  8028.9487  
489  0  -1761.9893  -4491.8447  4825.0674  
490  0  -1477.683  2445.3098  2857.1116  
491  0  -5527.1406  -2213.9973  5954.08  
492  0  -2647.4243  -2246.2407  3471.9524  
493  0  -2817.4197  -1900.0391  3398.235  
494  0  -3345.5398  -702.1731  3418.4329  
495  0  -3202.987  -2385.056  3993.4468  
496  0  -5590.079  -3641.1987  6671.38  
497  0  12117.224  -25318.781  28068.982  
498  0  -9356.588  -12675.552  15754.852  
499  0  1938.99  9655.266  9848.037  
500  0  -6027.951  2729.7798  6617.242  
501  0  -3178.2053  848.0813  3289.4119  
502  0  -3514.089  -30.253906  3514.2192  
503  0  -3704.8389  -348.83594  3721.2253  
504  0  -2492.9075  367.60938  2519.866  
505  0  -8483.457  1848.574  8682.526  
506  0  -3014.688  -8579.516  9093.758  
507  0  6441.6943  19728.297  20753.34  
508  0  384.7456  2483.686  2513.3096  
509  0  -1969.5745  35.18335  1969.8887  
510  0  -4074.2107  3324.7012  5258.596  
511  0  -4645.0576  -827.1865  4718.1353  
512  0  -3264.4878  -265.89868  3275.2988  
513  0  -2880.1548  -298.5454  2895.5864  
514  0  -5875.1904  934.4392  5949.037  
515  0  -6646.214  -1422.4602  6796.731  
516  0  -13271.268  -1411.7603  13346.146  
517  0  11810.456  978.322  11850.907  
518  0  11351.268  -15492.46  19205.926  
519  4095  1966.2888  2497.9172  3178.975  
520  4095  -2798.7705  -3385.9502  4392.9233  
521  4095  -893.75037  -2577.5886  2728.1409  
522  4095  -924.15857  -2830.8699  2977.901  
523  4095  -802.8894  -3594.139  3682.7253  
524  4095  637.0459  -2707.1926  2781.1365  
525  4095  -6367.1943  -7591.9033  9908.489  
526  4095  11712.325  -24492.002  27148.42  
527  4095  -11998.447  9439.941  15266.802  
528  4095  -2247.8232  10460.732  10699.516  
529  4095  -3445.0679  3493.1213  4906.158  
530  4095  -5453.708  3095.388  6270.9136  
531  4095  -4645.526  270.65405  4653.4033  
532  4095  -4242.2305  453.04346  4266.353  
533  4095  -2811.3745  1626.1831  3247.8145  
534  4095  -7098.3555  1312.7947  7218.731  
535  4095  -4201.571  -2867.7148  5086.943  
536  4095  -10154.056  -7693.2915  12739.371  
537  4095  -11032.008  982.2029  11075.6455  
538  4095  7256.0244  -1220.6763  7357.985  
539  4095  -2288.9834  4651.8936  5184.5503  
540  4095  -2629.5352  -1477.9143  3016.4028  
541  4095  -2078.9185  -523.4778  2143.8123  
542  4095  -2289.5925  -428.20312  2329.29  
543  4095  -2751.645  -481.59155  2793.4712  
544  4095  -2876.0283  2606.3596  3881.3206  
545  4095  -9049.015  -5284.1104  10478.859  
546  4095  36445.0  -4944.455  36778.875  
547  4095  5156.007  -11447.049  12554.653  
548  4095  -2935.0957  3594.7505  4640.7993  
549  4095  -2934.004  31.757568  2934.1758  
550  4095  -3829.516  -340.8252  3844.6528  
551  4095  -2897.9639  -1557.7175  3290.088  
552  4095  -2730.4375  -2219.4976  3518.7295  
553  4095  -2355.9758  869.29175  2511.2327  
554  4095  -8240.377  -2342.9502  8566.985  
555  2465  -386.2146  -3761.4102  3781.186  
556  0  -4846.5327  2179.8916  5314.208  
557  0  -8550.149  -7708.949  11512.296  
558  0  160.60193  -708.3904  726.3676  
559  0  -7119.6567  390.42993  7130.354  
560  0  -4737.2373  -2979.2915  5596.213  
561  0  -4596.699  -2646.9944  5304.359  
562  0  -4650.7344  -2641.2048  5348.3916  
563  0  -6374.161  -4257.5405  7665.284  
564  0  -10617.654  -3662.3237  11231.527  
565  0  -20811.93  -24283.088  31981.318  
566  0  8090.4756  18153.127  19874.402  
567  0  17153.965  3317.6104  17471.836  
568  0  1362.5671  5275.334  5448.462  
569  0  632.1645  1394.4697  1531.0708  
570  0  -510.62006  925.3706  1056.9028  
571  0  -192.34888  527.3176  561.30383  
572  0  1259.4011  -403.01392  1322.313  
573  0  121.8689  3583.5125  3585.584  
574  0  -3068.0305  -5743.5464  6511.615  
575  0  16814.64  -3215.2778  17119.291  
576  0  -8607.55  1333.6965  8710.262  
577  0  -4555.767  -3149.698  5538.5566  
578  0  -1564.4724  1462.2754  2141.4534  
579  0  -6079.724  -1008.44604  6162.792  
580  0  -3838.2893  -2056.27  4354.39  
581  0  -3561.5935  -2005.787  4087.5579  
582  0  -3524.5457  -187.5459  3529.5317  
583  0  -4252.253  -1941.5566  4674.537  
584  0  -6558.861  -1729.5239  6783.0605  
585  0  5909.6226  -37814.438  38273.43  
586  0  -12065.719  -10510.078  16001.354  
587  0  3288.9128  4156.124  5300.03  
588  0  -5376.493  1847.8477  5685.1753  
589  0  -3519.2776  -676.6013  3583.7278  
590  0  -4121.791  -1215.7991  4297.3633  
591  0  -4642.883  -1567.574  4900.372  
592  0  -3213.7183  -1523.8313  3556.6904  
593  0  -9235.705  2301.7375  9518.206  
594  0  -9383.499  -12518.49  15644.893  
595  0  20437.602  22778.383  30603.11  
596  0  3785.5806  2240.6062  4398.9697  
597  0  -1142.6418  285.1089  1177.6746  
598  0  -2125.105  2960.1257  3643.956  
599  0  -4227.307  -203.177  4232.187  
600  0  -3373.2625  -505.0288  3410.8582  
601  4095  -2807.279  -900.33813  2948.122  
602  4095  -5741.7593  1838.8071  6029.014  
603  4095  -8263.805  -717.5674  8294.9  
604  4095  -16980.254  2969.0906  17237.88  
605  4095  14454.4  -5202.2725  15362.074  
606  4095  6083.6416  -17533.73  18559.16  
607  4095  3774.2483  -1098.9448  3930.9834  
608  4095  -2583.9646  -4409.6045  5110.918  
609  4095  -916.83295  -4546.9233  4638.4365  
610  4095  -1004.6314  -4986.9175  5087.1045  
611  4095  -1211.385  -6041.483  6161.7344  
612  4095  774.5585  -6319.298  6366.59  
613  4095  -8179.206  -9589.505  12603.889  
614  4095  6047.444  -44674.004  45081.46  
615  4095  -9293.954  15937.168  18449.145  
616  4095  766.2743  10860.581  10887.58  
617  4095  -2548.0894  4454.8037  5132.0596  
618  4095  -3938.6748  4058.0605  5655.176  
619  4095  -4223.914  1374.51  4441.928  
620  4095  -3978.6418  889.896  4076.9482  
621  4095  -1636.636  1487.3445  2211.5088  
622  4095  -6269.584  3127.5793  7006.3853  
623  4095  -4528.6353  -3120.7007  5499.756  
624  4095  -12110.639  -5553.3613  13323.19  
625  4095  -9577.099  2535.557  9907.062  
626  4095  3522.725  -4288.002  5549.4644  
627  4095  -1644.1093  3384.256  3762.4836  
628  4095  -3970.379  -1506.3833  4246.5396  
629  4095  -3352.8792  -1027.0527  3506.656  
630  4095  -3441.338  -786.16016  3529.9934  
631  4095  -4336.496  -405.60742  4355.424  
632  4095  -3770.5508  2971.089  4800.461  
633  4095  -15384.087  -1377.8201  15445.663  
634  4095  50889.207  -26191.107  57233.605  
635  4095  4251.149  -15308.395  15887.706  
636  4095  485.76868  526.3865  716.27783  
637  0  -1726.4147  -2143.1704  2752.0332  
638  0  -2718.649  -2032.8  3394.6028  
639  0  -2722.6248  -3194.9934  4197.6978  
640  0  -2995.3599  -4339.0156  5272.498  
641  0  -1268.4182  -1402.7622  1891.1971  
642  0  -9187.976  -2625.5364  9555.749  
643  0  -958.745  -9655.763  9703.244  
644  0  -4111.538  7702.658  8731.305  
645  0  -9120.884  -3678.0305  9834.553  
646  0  -1017.1565  -2341.5383  2552.9219  
647  0  -6597.6006  551.9258  6620.646  
648  0  -6060.08  -3186.7224  6846.8804  
649  0  -6186.3647  -3558.8423  7136.9785  
650  0  -6310.3467  -3741.4834  7336.1553  
651  0  -9573.061  -5166.981  10878.474  
652  0  -14978.1875  -4305.841  15584.8125  
653  0  -43647.9  -27878.705  51791.52  
654  0  21790.904  17890.508  28194.215  
655  0  19032.895  -1440.9114  19087.36  
656  0  5717.828  4025.8271  6992.9136  
657  0  3064.8953  207.59814  3071.918  
658  0  1761.478  -125.677734  1765.9558  
659  0  1622.8054  -767.5918  1795.1865  
660  0  2852.4353  -2674.3198  3910.0352  
661  0  3734.4346  1772.5818  4133.769  
662  0  -3048.004  -7378.0117  7982.818  
663  0  31207.287  -19536.3  36817.957  
664  0  -9729.539  3282.167  10268.2295  
665  0  -6232.2163  -1087.5522  6326.396  
666  0  -1974.2128  791.4292  2126.9404  
667  0  -6103.1416  142.79346  6104.8115  
668  0  -4747.729  -1432.1655  4959.035  
669  0  -4327.9434  -1895.188  4724.7046  
670  0  -3337.3538  346.5647  3355.2998  
671  0  -5087.0527  -825.2761  5153.5605  
672  0  -6534.8374  1255.7019  6654.3887  
673  0  -7771.454  -60648.86  61144.742  
674  0  -14533.368  -9890.229  17579.402  
675  0  2036.6509  -1773.2832  2700.4592  
676  0  -5758.17  -115.84839  5759.335  
677  0  -5189.902  -2789.271  5891.9536  
678  0  -6124.54  -3092.6895  6861.102  
679  0  -7282.7676  -3319.1848  8003.48  
680  0  -6528.123  -4233.0137  7780.411  
681  0  -12651.589  1682.7795  12763.011  
682  0  -24911.074  -16791.113  30041.688  
683  4095  51253.22  24380.047  56756.316  
684  4095  10741.905  1153.8479  10803.698  
685  4095  2262.4104  220.5979  2273.14  
686  4095  987.0183  1848.1714  2095.219  
687  4095  -2431.7544  -153.50415  2436.5945  
688  4095  -2770.9993  -820.64966  2889.9658  
689  4095  -2589.983  -1763.3694  3133.2864  
690  4095  -5080.825  2668.6829  5739.0464  
691  4095  -10416.012  1180.717  10482.719  
692  4095  -22780.252  12315.42  25896.127  
693  4095  19209.9  -17069.42  25697.965  
694  4095  3186.9385  -20930.432  21171.668  
695  4095  5180.166  -7135.748  8817.768  
696  4095  -1904.9097  -7645.9336  7879.6562  
697  4095  -1079.0969  -8574.125  8641.763  
698  4095  -1496.6685  -9487.793  9605.115  
699  4095  -2344.077  -11078.908  11324.174  
700  4095  -699.157  -13657.013  13674.897  
701  4095  -11683.102  -16712.705  20391.404  
702  4095  -15153.146  -91203.7  92453.95  
703  4095  -1254.4463  28687.717  28715.13  
704  4095  5270.249  13150.943  14167.669  
705  4095  -123.326904  6638.0645  6639.21  
706  4095  -1443.9316  5350.038  5541.466  
707  4095  -2690.151  2774.2185  3864.3499  
708  4095  -3083.8945  1648.8237  3497.0022  
709  4095  -204.18994  1010.94336  1031.3583  
710  4095  -4366.9062  4782.0674  6475.9585  
711  4095  -5033.6875  -3408.7517  6079.2764  
712  4095  -13376.052  -2931.688  13693.56  
713  4095  -8205.587  3356.1108  8865.39  
714  4095  -419.43237  -5517.3994  5533.319  
715  4095  -1936.7817  2202.0544  2932.6042  
716  4095  -5682.3994  -917.33936  5755.9688  
717  4095  -5601.9053  -609.1511  5634.9277  
718  4095  -5934.254  -78.638916  5934.775  
719  0  -7709.8076  1602.1123  7874.5093  
720  0  -7732.6064  6285.029  9964.677  
721  0  -27932.248  12692.932  30680.955  
722  0  85825.164  -87757.01  122748.73  
723  0  7380.8105  -26966.908  27958.729  
724  0  5008.919  -8895.394  10208.6875  
725  0  247.32397  -9079.373  9082.741  
726  0  -1373.489  -8270.8545  8384.122  
727  0  -2577.6523  -9007.484  9369.048  
728  0  -4027.09  -10588.329  11328.291  
729  0  -1444.2717  -9025.186  9140.017  
730  0  -11445.328  -8619.824  14328.186  
731  0  -7937.527  -28694.021  29771.652  
732  0  3807.6636  24036.816  24336.533  
733  0  -7319.747  1344.1876  7442.146  
734  0  -2512.6914  -3143.273  4024.15  
735  0  -6931.708  -270.8004  6936.9956  
736  0  -8785.174  -4180.4375  9729.098  
737  0  -10527.373  -5469.875  11863.6045  
738  0  -12149.786  -6324.5093  13697.324  
739  0  -19334.63  -7313.0063  20671.43  
740  0  -31950.8  -6903.0903  32688.016  
741  0  -121735.84  -32207.918  125924.445  
742  0  64817.414  14479.341  66414.98  
743  0  32841.062  -7050.552  33589.37  
744  0  17999.342  -198.29358  18000.436  
745  0  11722.27  -3642.4214  12275.131  
746  0  9189.441  -4265.844  10131.301  
747  0  8026.677  -5377.3457  9661.4375  
748  0  8319.0205  -8746.519  12070.943  
749  0  11723.882  -5767.0156  13065.522  
750  0  2662.3865  -15737.049  15960.671  
751  0  80752.49  -95969.9  125424.03  
752  0  -13319.47  11002.8955  17276.342  
753  0  -7482.589  2712.3184  7959.008  
754  0  -2692.724  1059.8805  2893.8054  
755  0  -5730.8755  1221.0853  5859.521  
756  0  -5245.5938  -524.03723  5271.7046  
757  0  -5054.958  -1381.7515  5240.4043  
758  0  -2745.6963  1358.7026  3063.482  
759  0  -4964.9575  2759.9287  5680.4937  
760  0  -2771.9678  11307.652  11642.457  
761  0  -71834.37  -166417.72  181259.56  
762  0  -24403.281  -20990.605  32188.906  
763  0  -7638.083  -14569.32  16450.088  
764  0  -13884.155  -8882.08  16482.145  
765  4095  -15738.524  -10782.834  19078.016  
766  4095  -18887.035  -10714.075  21714.314  
767  4095  -23694.486  -10665.461  25984.24  
768  4095  -29589.559  -12613.148  32165.719  
769  4095  -46850.895  -5417.24  47163.043  
770  4095  -120711.13  -26302.627  123543.54  
771  4095  243150.58  19357.918  243919.94  
772  4095  57356.145  -5684.843  57637.18  
773  4095  28478.35  -5564.3955  29016.873  
774  4095  18842.033  -4927.638  19475.725  
775  4095  10160.32  -5538.658  11571.899  
776  4095  5196.2354  -5499.4956  7566.063  
777  4095  1362.435  -5692.5044  5853.276  
778  4095  -3948.101  3168.7505  5062.458  
779  4095  -19563.93  12514.329  23224.035  
780  4095  -68199.055  84564.46  108638.2  
781  4095  65142.773  -112120.14  129670.766  
782  4095  18232.312  -67697.945  70110.12  
783  4095  15509.662  -51053.047  53356.94  
784  4095  4373.56  -48895.508  49090.72  
785  4095  185.23096  -53067.03  53067.355  
786  4095  -5466.3945  -60463.75  60710.348  
787  4095  -13870.598  -73268.88  74570.25  
788  4095  -25810.314  -99689.664  102976.7  
789  4095  -70388.9  -159512.03  174352.19  
790  4095  -422108.25  -844759.3  944348.3  
791  4095  140330.22  232942.6  271946.34  
792  4095  77388.67  94214.75  121923.85  
793  4095  52912.85  55811.37  76906.95  
794  4095  43324.54  38126.594  57711.81  
795  4095  37105.387  26522.953  45610.05  
796  4095  33412.094  18705.973  38292.055  
797  4095  34945.043  11503.033  36789.613  
798  4095  31757.707  13203.201  34392.97  
799  4095  27744.484  161.56956  27744.955  
