n v(n)    Re(T)       Im(T)        Mod(T) 
   
0  0  1105650.0  0.0  1105650.0  
1  0  -4500.183  -9425.506  10444.702  
2  0  -6528.593  -23110.451  24014.9  
3  0  -7142.603  -34170.4  34908.92  
4  0  -6215.8667  -57450.973  57786.254  
5  0  -13419.892  -89594.6  90594.07  
6  0  -12068.988  -161869.31  162318.62  
7  0  -52500.605  -519395.53  522042.2  
8  0  61468.438  634215.7  637187.5  
9  0  14627.83  220197.56  220682.89  
10  0  18113.564  132904.55  134133.22  
11  0  8241.252  96833.63  97183.695  
12  0  14867.587  82536.46  83864.85  
13  0  17323.0  60392.36  62827.727  
14  0  24507.63  60734.75  65493.004  
15  0  430492.78  -29299.99  431488.72  
16  0  -28438.258  58020.926  64615.496  
17  0  -20105.805  44453.582  48788.977  
18  0  -12530.236  46106.19  47778.527  
19  0  -8795.586  39393.4  40363.375  
20  0  -9756.936  39383.82  40574.414  
21  0  -6265.3765  38599.44  39104.625  
22  0  -5768.6943  41845.535  42241.29  
23  0  -12350.496  18079.582  21895.344  
24  0  -8403.142  24568.053  25965.4  
25  0  -11260.913  27967.89  30149.81  
26  0  -8370.764  28030.28  29253.482  
27  0  -14168.193  26102.879  29700.133  
28  0  -16118.8125  33114.043  36828.74  
29  0  -25244.05  27410.941  37264.215  
30  0  -212869.53  107812.87  238614.86  
31  0  27471.215  7116.939  28378.133  
32  0  22056.25  21255.98  30631.6  
33  0  11358.621  16042.615  19656.646  
34  0  8809.957  26887.816  28294.346  
35  0  14374.984  24840.504  28700.014  
36  0  7872.448  35116.883  35988.484  
37  0  37188.46  74284.51  83073.28  
38  0  -63653.934  -113703.03  130308.11  
39  4095  -12614.658  -26416.137  29273.57  
40  4095  -10397.223  -5620.2495  11819.028  
41  4095  -3593.1262  -2460.0396  4354.578  
42  4095  -5382.2437  -950.25195  5465.485  
43  4095  -2789.2632  1793.6282  3316.1863  
44  4095  -1470.0879  260.22485  1492.9419  
45  4095  10774.929  -6791.9014  12736.915  
46  4095  -6539.8223  5384.277  8471.11  
47  4095  -8671.193  2424.4514  9003.753  
48  4095  -5426.0176  4286.239  6914.7314  
49  4095  -6285.249  -1596.0835  6484.739  
50  4095  -10094.558  648.73  10115.382  
51  4095  -6181.0527  -7243.118  9521.983  
52  4095  -31515.31  -27130.688  41584.72  
53  4095  75132.79  102173.53  126824.16  
54  4095  14027.978  35217.938  37908.934  
55  4095  11983.839  12694.295  17457.305  
56  4095  2874.9785  13434.919  13739.088  
57  4095  10827.631  10824.024  15310.032  
58  4095  6136.1  2312.7715  6557.487  
59  4095  14198.314  6790.096  15738.409  
60  4095  64877.555  -50701.36  82339.086  
61  4095  -22220.006  35765.723  42106.004  
62  4095  -17344.408  21048.133  27273.658  
63  4095  -7536.7847  19766.1  21154.238  
64  4095  -7081.872  14634.075  16257.585  
65  4095  -6370.6543  16100.084  17314.674  
66  4095  -4427.786  14743.597  15394.12  
67  4095  -2881.984  15916.67  16175.481  
68  4095  -19373.338  1624.7312  19441.346  
69  4095  -8460.638  8169.87  11761.342  
70  4095  -8416.914  14650.007  16895.773  
71  4095  -5348.0376  12283.578  13397.306  
72  4095  -11171.902  14449.98  18265.086  
73  4095  -7516.002  19845.664  21221.23  
74  4095  -16509.35  17512.803  24067.756  
75  0  -49232.008  74330.67  89156.266  
76  0  17829.463  -26109.562  31616.436  
77  0  17159.305  -7197.6777  18607.748  
78  0  2024.219  -4548.4253  4978.517  
79  0  5179.723  4765.5317  7038.453  
80  0  4576.504  -1488.4348  4812.466  
81  0  -490.1194  6633.0957  6651.1787  
82  0  13656.281  5461.084  14707.734  
83  0  -59433.16  -32178.154  67585.016  
84  0  -7374.085  -6718.784  9975.931  
85  0  -3197.2998  3933.5903  5069.1084  
86  0  -420.03467  398.43774  578.94885  
87  0  -2300.4973  1639.1206  2824.7131  
88  0  -214.76978  1367.6814  1384.4415  
89  0  186.95044  -138.33105  232.56386  
90  0  4193.493  -9369.066  10264.735  
91  0  -4448.9067  11942.966  12744.693  
92  0  -7049.4844  8080.4385  10723.279  
93  0  -673.0022  6895.1514  6927.918  
94  0  -4102.8525  2681.9282  4901.6465  
95  0  -2778.0696  7766.2637  8248.183  
96  0  405.87622  672.78345  785.7309  
97  0  -10658.456  5871.257  12168.58  
98  0  70625.97  29231.42  76436.266  
99  0  5500.325  12745.15  13881.37  
100  0  -1203.2937  -2898.322  3138.1821  
101  0  -3614.955  5749.8584  6791.8164  
102  0  2847.824  -131.95142  2850.8792  
103  0  -4365.5596  -1576.8674  4641.618  
104  0  4304.7007  58.89795  4305.1035  
105  0  4860.957  -30179.344  30568.312  
106  0  -8693.977  36238.3  37266.605  
107  0  -10476.93  19295.027  21955.959  
108  0  -2867.5498  12867.531  13183.179  
109  0  -5185.604  9595.031  10906.654  
110  0  -3987.055  10091.355  10850.44  
111  0  -4049.345  8757.752  9648.596  
112  0  -3539.0386  7895.8916  8652.739  
113  0  -22195.557  5627.779  22897.918  
114  0  -5364.1045  5707.916  7832.8745  
115  0  -1834.2598  12108.854  12246.993  
116  0  -1864.3718  6831.6826  7081.5093  
117  0  -5719.1055  12012.575  13304.516  
118  0  169.92969  12181.581  12182.767  
119  0  -8624.066  12663.402  15321.106  
120  0  -2621.2527  42710.598  42790.957  
121  0  -2278.9182  -38303.176  38370.91  
122  0  6122.0645  -16662.719  17751.785  
123  0  -6666.9766  -4445.8213  8013.358  
124  0  1189.661  57.206055  1191.0356  
125  0  -4305.429  -4413.038  6165.357  
126  0  -4621.5625  4058.5186  6150.643  
127  0  -1059.1797  -3972.8066  4111.5757  
128  0  -42385.004  2396.9531  42452.727  
129  0  -360.17212  -2484.1104  2510.0852  
130  0  3392.1182  3666.4087  4994.8994  
131  0  1080.1929  -484.3037  1183.7933  
132  0  -188.66187  1285.9358  1299.7015  
133  0  264.4281  210.71338  338.11588  
134  0  413.34705  -578.7302  711.18524  
135  0  -1673.8241  -6767.6807  6971.5986  
136  0  2633.4788  16046.774  16261.433  
137  0  -2466.6643  10642.24  10924.363  
138  0  3543.0916  3964.759  5317.2183  
139  0  -2051.7168  2959.4795  3601.1194  
140  0  3472.2656  6104.0967  7022.5796  
141  0  2757.5645  -1392.9924  3089.432  
142  0  2211.2815  8069.1763  8366.682  
143  0  49536.332  -9013.57  50349.703  
144  0  -5152.9746  9152.148  10503.094  
145  4095  -13656.66  -1586.6519  13748.5205  
146  4095  -6323.595  7318.6177  9672.126  
147  4095  -3760.241  -1064.3169  3907.9639  
148  4095  -8619.829  3170.9038  9184.557  
149  4095  -602.0023  997.4729  1165.0575  
150  4095  -11009.42  -9133.041  14304.537  
151  4095  5227.79  29800.225  30255.3  
152  4095  -4371.4585  15022.625  15645.731  
153  4095  -1448.4321  6568.2695  6726.0776  
154  4095  -4389.4795  6340.0337  7711.2617  
155  4095  -3574.303  6170.306  7130.801  
156  4095  -4334.5547  6107.6865  7489.4727  
157  4095  -5271.9893  4721.249  7077.01  
158  4095  -18470.443  11960.416  22004.746  
159  4095  -1171.8845  1639.706  2015.4279  
160  4095  4574.888  6301.2246  7786.85  
161  4095  -1084.5181  1339.5913  1723.5673  
162  4095  -1388.6538  8054.5747  8173.404  
163  4095  2322.9219  3248.5542  3993.6287  
164  4095  -5410.971  7136.2275  8955.688  
165  4095  9011.669  15391.386  17835.496  
166  4095  -23535.406  -33456.34  40905.28  
167  4095  -3525.3403  -15058.589  15465.74  
168  4095  -8279.392  3062.2305  8827.547  
169  4095  35.42871  100.27124  106.3462  
170  4095  -7480.1274  -178.99316  7482.269  
171  4095  -3055.6602  5559.775  6344.1436  
172  4095  -5855.696  -1564.4373  6061.0757  
173  4095  -21199.81  15148.609  26055.945  
174  4095  3438.3267  -5021.602  6085.9326  
175  4095  5836.5835  -375.8391  5848.672  
176  4095  552.34906  -1450.7534  1552.345  
177  4095  350.68506  374.43628  513.0132  
178  4095  -167.01526  103.90405  196.69812  
179  4095  435.7655  -423.51733  607.66644  
180  4095  -3592.7935  -1695.8567  3972.9202  
181  0  11577.509  13989.436  18158.828  
182  0  1558.4297  9001.994  9135.896  
183  0  3058.5222  -2007.5789  3658.5422  
184  0  -2111.067  1928.0588  2859.0234  
185  0  4936.1396  882.57495  5014.4204  
186  0  -190.33472  -4012.856  4017.3672  
187  0  5680.84  3269.5137  6554.5146  
188  0  21934.984  -23222.555  31944.18  
189  0  -9864.656  15925.008  18732.787  
190  0  -18296.732  7700.2407  19851.049  
191  0  -3588.4028  9392.467  10054.6045  
192  0  -6309.416  1252.4246  6432.519  
193  0  -6343.2563  7558.651  9867.629  
194  0  -1207.626  2020.158  2353.5928  
195  0  -9786.412  3218.229  10301.983  
196  0  12712.33  17262.451  21438.18  
197  0  -2136.8674  9259.073  9502.454  
198  0  -3170.1692  2305.6338  3919.9387  
199  0  -4398.131  4286.6655  6141.584  
200  0  -4101.065  4091.599  5793.0923  
201  0  -3996.9712  4850.1147  6284.854  
202  0  -6014.5293  3853.2705  7142.9863  
203  0  -10256.898  14255.943  17562.344  
204  0  18.35225  -5398.9346  5398.966  
205  0  6473.2983  -2253.4607  6854.318  
206  0  -4012.272  -1976.2195  4472.5576  
207  0  18.606934  3820.3125  3820.358  
208  0  -1179.8456  -2817.3635  3054.435  
209  0  -5756.4824  4240.4834  7149.7407  
210  0  4547.9434  -571.0227  4583.651  
211  0  -35244.707  -16147.756  38767.76  
212  0  -6136.345  -8654.662  10609.331  
213  0  -1548.1954  9105.711  9236.389  
214  0  1362.4985  -272.50732  1389.4828  
215  0  -5160.6816  3797.1934  6407.13  
216  0  1019.81854  4579.6313  4691.807  
217  0  -4907.9517  883.77515  4986.8877  
218  0  -4842.549  13583.789  14421.151  
219  0  2108.207  -8579.295  8834.525  
220  0  4222.4585  -3615.568  5558.9106  
221  0  -486.96442  -1065.2805  1171.3057  
222  0  113.37909  4.8864746  113.484344  
223  0  -1.7717285  728.573  728.57513  
224  0  805.7833  -458.34546  927.0207  
225  0  -1764.3652  2060.4253  2712.6255  
226  0  16962.898  5821.661  17934.092  
227  0  1828.5422  5560.6025  5853.5347  
228  0  -3130.5225  -5897.258  6676.662  
229  0  -3587.3984  2339.1455  4282.643  
230  0  1907.0367  -2995.4392  3550.978  
231  0  -4943.754  -2631.5942  5600.5347  
232  0  3915.7793  129.22314  3917.9111  
233  0  -47.535156  -19051.766  19051.824  
234  0  -4666.814  23976.719  24426.67  
235  0  -13915.785  16013.967  21215.47  
236  0  1226.9642  6786.329  6896.3545  
237  0  -6000.8535  2621.2761  6548.384  
238  0  -1701.1802  7388.941  7582.2466  
239  0  -1046.4697  809.8711  1323.2498  
240  0  -4582.7417  6297.288  7788.2837  
241  0  11570.982  4719.4263  12496.424  
242  0  -3191.003  5154.411  6062.2153  
243  0  -5480.132  1133.9614  5596.223  
244  0  -4322.922  3047.3877  5289.0664  
245  0  -4232.988  3217.5918  5317.056  
246  0  -2991.422  3302.3313  4455.7827  
247  0  -5693.5493  3205.0952  6533.693  
248  0  -2549.9873  10628.215  10929.839  
249  0  -4394.5674  -11922.094  12706.24  
250  0  2826.0527  -9135.546  9562.676  
251  4095  -7745.506  -304.95386  7751.507  
252  4095  -308.922  1363.9099  1398.4574  
253  4095  -6231.96  -3236.8083  7022.4106  
254  4095  -5713.633  4729.702  7417.2554  
255  4095  -3115.7483  -4871.082  5782.329  
256  4095  -32455.934  3239.5005  32617.203  
257  4095  -2259.7905  -4943.6533  5435.6562  
258  4095  8514.818  7679.951  11466.638  
259  4095  2028.488  -2660.4758  3345.5784  
260  4095  -1058.1204  4349.034  4475.904  
261  4095  3247.2349  745.22534  3331.6504  
262  4095  -3031.271  1102.0186  3225.3757  
263  4095  2603.4932  6255.8774  6776.0005  
264  4095  -2090.512  -8957.043  9197.764  
265  4095  1335.6766  -3937.4841  4157.862  
266  4095  -592.3259  -54.232666  594.80347  
267  4095  -139.60767  39.209473  145.00925  
268  4095  890.1223  780.83936  1184.0726  
269  4095  759.28296  -1199.218  1419.3782  
270  4095  1059.4246  2757.3562  2953.8777  
271  4095  15146.435  -3961.655  15655.963  
272  4095  -1335.6255  4509.259  4702.9043  
273  4095  -11320.651  -3523.656  11856.361  
274  4095  -3631.4873  4637.784  5890.394  
275  4095  -2256.7363  -3324.523  4018.123  
276  4095  -6747.291  2147.9553  7080.9355  
277  4095  1958.7808  -270.33545  1977.3475  
278  4095  -9592.777  -6811.248  11764.969  
279  4095  7029.858  24859.703  25834.545  
280  4095  -5595.243  17505.06  18377.537  
281  4095  2466.556  -392.66602  2497.6157  
282  4095  -5613.97  2301.985  6067.602  
283  4095  775.5513  3487.2559  3572.4548  
284  4095  -2528.578  -1073.8113  2747.1396  
285  4095  -1623.7224  4379.0806  4670.42  
286  4095  4999.606  -2597.6145  5634.1514  
287  0  -4748.3057  3741.7134  6045.397  
288  0  -6071.306  1655.0498  6292.849  
289  0  -4063.2566  1813.4822  4449.581  
290  0  -3737.9148  2443.2915  4465.611  
291  0  -2597.4988  899.8662  2748.956  
292  0  -5427.623  2216.9458  5862.929  
293  0  585.10645  3763.7292  3808.938  
294  0  -12636.946  -13139.169  18229.926  
295  0  -3003.941  -10793.346  11203.569  
296  0  -7354.086  5457.453  9157.858  
297  0  -93.521484  431.01538  441.04483  
298  0  -8248.867  440.3606  8260.613  
299  0  -2825.4614  5702.8647  6364.425  
300  0  -6983.463  -2899.856  7561.608  
301  0  -19008.902  14520.544  23920.38  
302  0  2286.0476  -7509.7593  7849.9995  
303  0  14588.125  -859.07007  14613.397  
304  0  -266.90918  -4810.1753  4817.5747  
305  0  1472.6807  2455.504  2863.2654  
306  0  1934.646  -2860.049  3452.9314  
307  0  -2271.9902  700.928  2377.6543  
308  0  2924.538  185.28296  2930.4016  
309  0  -5179.342  -5690.381  7694.5444  
310  0  -265.36206  -2285.9492  2301.2998  
311  0  -48.81006  116.923584  126.70259  
312  0  -437.92383  129.5127  456.67365  
313  0  1380.0654  -231.59497  1399.363  
314  0  -529.1072  -1814.0684  1889.6556  
315  0  2437.3018  1482.0862  2852.5461  
316  0  7304.5205  -9546.963  12020.837  
317  0  -3966.4932  7923.1094  8860.516  
318  0  -15616.417  4640.5522  16291.323  
319  0  -435.7666  5943.989  5959.941  
320  0  -4581.4805  -1492.3914  4818.4224  
321  0  -3888.043  6106.3374  7239.0767  
322  0  1569.5068  -548.59155  1662.6198  
323  0  -8223.637  3236.6  8837.634  
324  0  16942.33  16075.05  23354.867  
325  0  -159.92676  12714.437  12715.442  
326  0  -2828.885  -7178.331  7715.6353  
327  0  -6234.6987  2004.1755  6548.907  
328  0  -329.2644  -627.3872  708.5406  
329  0  -5069.302  -1377.4883  5253.122  
330  0  -1529.6735  1846.4568  2397.7708  
331  0  -1658.4375  -3819.1626  4163.7026  
332  0  -4855.1543  3469.2844  5967.282  
333  0  -4909.653  1520.5703  5139.73  
334  0  -4325.841  545.4773  4360.0967  
335  0  -3219.0088  1356.5198  3493.1597  
336  0  -3760.7202  -1255.1278  3964.6392  
337  0  -5597.169  1711.8134  5853.085  
338  0  -1103.2131  -1874.8414  2175.3413  
339  0  -19243.104  -7404.229  20618.43  
340  0  -6082.915  -8012.4106  10059.85  
341  0  -278.16016  10141.197  10145.012  
342  0  1067.3618  -1107.7849  1538.3265  
343  0  -5926.276  4000.6702  7150.252  
344  0  1457.3281  3811.9248  4081.002  
345  0  -6705.0166  -538.53564  6726.609  
346  0  -4204.4253  14000.857  14618.523  
347  0  1663.063  -13592.215  13693.578  
348  0  12755.488  -10667.5205  16628.242  
349  0  -4183.5293  -3385.3813  5381.7026  
350  0  1903.2966  648.083  2010.6093  
351  0  -1136.731  -3560.9512  3737.9849  
352  0  -1924.7905  1029.9081  2183.0093  
353  0  645.105  -1994.685  2096.4087  
354  0  -4990.862  -1487.0997  5207.7026  
355  0  -266.34644  -704.974  753.6105  
356  0  -436.41968  -688.125  814.8485  
357  0  -894.8579  534.6715  1042.4222  
358  4095  616.0078  -1409.8256  1538.5298  
359  4095  -2417.1438  -924.6466  2587.9636  
360  4095  2195.6084  332.8075  2220.6885  
361  4095  -1329.7808  -8173.6216  8281.087  
362  4095  -1868.5364  13344.518  13474.701  
363  4095  -12739.502  13408.114  18495.201  
364  4095  3887.6648  2557.3083  4653.3604  
365  4095  -4956.635  -138.84497  4958.579  
366  4095  952.0486  5643.102  5722.8486  
367  4095  1007.4011  -2420.4795  2621.751  
368  4095  -2689.323  6335.8633  6882.995  
369  4095  18254.408  2458.2595  18419.188  
370  4095  -635.30835  7007.302  7036.0425  
371  4095  -12111.912  -8066.9062  14552.436  
372  4095  -6449.1113  2922.0718  7080.2217  
373  4095  -3166.4258  -2431.6565  3992.3936  
374  4095  -6502.574  124.462585  6503.765  
375  4095  -2405.5642  441.75452  2445.7896  
376  4095  -5001.5137  -1891.2375  5347.141  
377  4095  -3956.9985  2351.0425  4602.7427  
378  4095  -3761.59  -197.8346  3766.789  
379  4095  -5168.9653  316.56476  5178.65  
380  4095  -2929.3032  345.13043  2949.5647  
381  4095  -5705.6514  -1616.4302  5930.2026  
382  4095  -5184.6494  2161.893  5617.3276  
383  4095  -4525.718  -3786.462  5900.798  
384  4095  -19188.014  1766.219  19269.13  
385  4095  -4334.1445  -5350.654  6885.8047  
386  4095  10587.339  7965.3604  13249.102  
387  4095  930.6421  -4179.67  4282.0244  
388  4095  -1751.4414  4469.775  4800.6704  
389  4095  3396.7495  -1107.0552  3572.601  
390  4095  -5367.166  20.403015  5367.205  
391  4095  3998.695  5780.335  7028.6436  
392  4095  -4920.0522  -16936.863  17637.014  
393  4095  5267.2754  -15434.145  16308.188  
394  0  -5577.464  2151.6318  5978.095  
395  0  1779.9229  26.64685  1780.1223  
396  0  -3007.4695  -1523.171  3371.1902  
397  0  -873.5576  1639.8705  1858.0308  
398  0  -847.86035  -1491.4705  1715.6199  
399  0  -2553.3015  801.35626  2676.1018  
400  0  0.0048828125  -1.3894024  1.389411  
401  0  -2552.101  -805.5494  2676.2156  
402  0  -849.573  1490.965  1716.0276  
403  0  -875.7739  -1645.5867  1864.1179  
404  0  -3009.8428  1519.1116  3371.4766  
405  0  1771.428  -24.730759  1771.6006  
406  0  -5572.3164  -2151.8865  5973.385  
407  0  5241.3076  15455.747  16320.276  
408  0  -4957.477  16909.736  17621.457  
409  0  4011.0835  -5791.905  7045.2075  
410  0  -5370.0273  -24.6828  5370.084  
411  0  3393.0918  1100.277  3567.0269  
412  0  -1743.6533  -4478.504  4805.968  
413  0  916.8181  4174.682  4274.1694  
414  0  10594.279  -7949.057  13244.857  
415  0  -4370.414  5339.2095  6899.832  
416  0  -19193.291  -1812.0178  19278.637  
417  0  -4528.122  3767.458  5890.4697  
418  0  -5181.87  -2177.0815  5620.6284  
419  0  -5705.968  1596.7478  5925.173  
420  0  -2926.5173  -368.6761  2949.6484  
421  0  -5165.0957  -330.29413  5175.6455  
422  0  -3759.97  181.56744  3764.3513  
423  0  -3951.6157  -2363.8513  4604.678  
424  0  -5001.082  1873.6268  5340.5337  
425  0  -2402.8677  -461.17346  2446.7231  
426  0  -6494.149  -142.27643  6495.7075  
427  0  -3168.7024  2420.3284  3987.313  
428  0  -6439.086  -2946.2307  7081.109  
429  0  -12112.266  8033.8926  14534.456  
430  0  -596.60156  -7022.866  7048.1616  
431  0  18265.91  -2426.7783  18426.414  
432  0  -2685.6072  -6345.8936  6890.78  
433  0  995.90137  2421.1807  2618.0022  
434  0  956.43945  -5654.6865  5735.003  
435  0  -4965.962  129.5094  4967.6504  
436  0  3895.5027  -2558.413  4660.517  
437  0  -12718.231  -13436.65  18501.27  
438  0  -1835.0762  -13338.292  13463.935  
439  0  -1343.4326  8183.575  8293.112  
440  0  2210.149  -326.6737  2234.1606  
441  0  -2422.9292  922.2117  2592.5007  
442  0  615.77905  1407.5608  1536.363  
443  0  -898.6106  -538.3413  1047.5267  
444  0  -438.1184  688.4225  816.01056  
445  0  -274.69678  703.6688  755.38605  
446  0  -4992.029  1479.7811  5206.7363  
447  0  638.2512  1996.8303  2096.353  
448  0  -1922.1924  -1038.4597  2184.7705  
449  0  -1140.9971  3553.3557  3732.0518  
450  0  1897.887  -647.6156  2005.3381  
451  0  -4180.882  3383.089  5378.2026  
452  0  12734.77  10690.394  16627.053  
453  0  1621.9109  13571.278  13667.853  
454  0  -4184.7114  -14027.195  14638.102  
455  0  -6717.4688  518.60046  6737.4575  
456  0  1455.0703  -3815.626  4083.6543  
457  0  -5919.412  -4011.1318  7150.4277  
458  0  1064.6062  1095.2803  1527.4244  
459  0  -268.91333  -10140.994  10144.559  
460  0  -6113.5  8003.983  10071.675  
461  0  -19258.125  7357.9663  20615.895  
462  0  -1100.2183  1866.49  2166.6252  
463  0  -5588.462  -1732.9072  5850.9717  
464  4095  -3760.651  1237.0668  3958.8923  
465  4095  -3208.042  -1363.9159  3485.943  
466  4095  -4323.455  -561.13257  4359.7173  
467  4095  -4895.2295  -1538.6255  5131.339  
468  4095  -4839.573  -3481.9712  5962.012  
469  4095  -1664.5908  3813.3096  4160.792  
470  4095  -1521.6577  -1861.3091  2404.1453  
471  4095  -5066.708  1361.6431  5246.485  
472  4095  -326.0459  617.4431  698.242  
473  4095  -6224.83  -2024.3684  6545.7295  
474  4095  -2832.187  7151.005  7691.434  
475  4095  -116.41675  -12735.683  12736.215  
476  4095  16969.443  -16038.814  23349.637  
477  4095  -8218.828  -3244.0813  8835.904  
478  4095  1562.4167  555.1858  1658.1246  
479  4095  -3872.9387  -6115.4453  7238.669  
480  4095  -4583.157  1481.8376  4816.7593  
481  4095  -425.49976  -5944.7266  5959.935  
482  4095  -15605.465  -4672.407  16289.933  
483  4095  -3935.4556  -7922.6943  8846.293  
484  4095  7297.064  9563.161  12029.181  
485  4095  2439.032  -1475.8862  2850.8098  
486  4095  -532.0886  1811.2214  1887.7609  
487  4095  1377.0715  236.9143  1397.3025  
488  4095  -435.83472  -131.39795  455.2113  
489  4095  -46.88745  -121.66284  130.38512  
490  4095  -276.0818  2287.177  2303.7793  
491  4095  -5184.8115  5674.2676  7686.3247  
492  4095  2922.9895  -191.18018  2929.235  
493  4095  -2267.5964  -706.979  2375.25  
494  4095  1933.0886  2853.9404  3446.9998  
495  4095  1470.0642  -2459.7595  2865.5725  
496  4095  -271.21143  4801.7393  4809.3926  
497  4095  14579.428  883.2656  14606.159  
498  4095  2244.541  7505.9424  7834.356  
499  4095  -18990.416  -14566.303  23933.514  
500  0  -6992.966  2883.5015  7564.1357  
501  0  -2818.8242  -5707.367  6365.517  
502  0  -8234.822  -460.86914  8247.709  
503  0  -92.028564  -427.17822  436.97882  
504  0  -7345.616  -5467.1025  9156.816  
505  0  -3028.5457  10793.993  11210.815  
506  0  -12658.678  13105.508  18220.771  
507  0  601.21484  -3780.6394  3828.1448  
508  0  -5415.867  -2238.9768  5860.4297  
509  0  -2594.366  -905.2693  2747.7715  
510  0  -3735.4841  -2450.7847  4467.6826  
511  0  -4047.4392  -1837.1873  4444.8867  
512  0  -6060.543  -1676.3118  6288.1  
513  0  -4729.9727  -3756.4795  6040.1807  
514  0  4999.7637  2599.0627  5634.959  
515  0  -1616.7101  -4387.038  4675.4526  
516  0  -2522.5503  1062.1201  2737.0347  
517  0  788.4407  -3496.7588  3584.5447  
518  0  -5604.9355  -2322.1306  6066.9263  
519  0  2471.0994  377.29614  2499.7368  
520  0  -5551.3916  -17521.617  18380.018  
521  0  7077.998  -24839.705  25828.453  
522  0  -9609.388  6811.4937  11778.657  
523  0  1960.3118  273.34253  1979.2772  
524  0  -6743.649  -2157.6448  7080.4116  
525  0  -2263.5425  3316.5723  4015.38  
526  0  -3615.5374  -4640.8877  5883.022  
527  0  -11313.86  3501.8843  11843.422  
528  0  -1305.6173  -4511.578  4696.698  
529  0  15152.26  3993.235  15669.617  
530  0  1057.6516  -2745.8074  2942.4624  
531  0  755.78  1201.625  1419.5443  
532  0  896.11597  -778.1643  1186.8292  
533  0  -138.52722  -41.225586  144.53145  
534  0  -589.817  54.193115  592.30145  
535  0  1330.5205  3945.9912  4164.2686  
536  0  -2110.3257  8942.388  9188.023  
537  0  2616.0273  -6265.465  6789.6724  
538  0  -3031.7651  -1110.3433  3228.6936  
539  0  3247.9272  -747.334  3332.7974  
540  0  -1039.0074  -4357.383  4479.5444  
541  0  2024.1636  2657.7375  3340.7793  
542  0  8516.062  -7665.0195  11457.566  
543  0  -2297.058  4941.152  5448.987  
544  0  -32456.684  -3305.858  32624.607  
545  0  -3114.2095  4859.6724  5771.89  
546  0  -5699.698  -4746.214  7417.082  
547  0  -6242.4287  3223.185  7025.4424  
548  0  -299.5409  -1371.8652  1404.1863  
549  0  -7739.7734  292.58032  7745.302  
550  0  2814.2202  9131.74  9555.549  
551  0  -4417.0137  11888.978  12682.974  
552  0  -2526.793  -10658.078  10953.507  
553  0  -5687.5547  -3223.9163  6537.73  
554  0  -2979.8882  -3318.2227  4459.8584  
555  0  -4218.6973  -3233.187  5315.1577  
556  0  -4306.001  -3066.294  5286.19  
557  0  -5462.7666  -1146.9946  5581.883  
558  0  -3169.6946  -5167.8574  6062.484  
559  0  11586.443  -4704.418  12505.088  
560  0  -4572.881  -6310.376  7793.079  
561  0  -1041.9968  -819.4077  1325.5891  
562  0  -1691.3784  -7391.327  7582.3794  
563  0  -5999.13  -2643.0962  6555.5713  
564  0  1239.6506  -6792.298  6904.4946  
565  0  -13879.683  -16044.387  21214.805  
566  0  -4606.6313  -23961.072  24399.879  
567  0  -71.96924  19070.055  19070.19  
568  0  3925.29  -118.91724  3927.0908  
569  0  -4938.83  2619.7993  5590.652  
570  4095  1915.4597  2995.19  3555.2988  
571  4095  -3571.1821  -2350.289  4275.184  
572  4095  -3129.9668  5881.121  6662.1523  
573  4095  1854.8816  -5574.5723  5875.0693  
574  4095  16976.738  -5788.391  17936.418  
575  4095  -1767.8898  -2061.4873  2715.7253  
576  4095  806.67535  453.9729  925.64386  
577  4095  1.2377319  -725.5073  725.5084  
578  4095  101.03882  7.5927734  101.32371  
579  4095  -491.12537  1063.7297  1171.6335  
580  4095  4212.125  3621.2651  5554.7783  
581  4095  2081.9966  8572.791  8821.987  
582  4095  -4825.873  -13602.25  14432.957  
583  4095  -4902.9854  -892.5486  4983.564  
584  4095  1029.8312  -4581.293  4695.6147  
585  4095  -5155.051  -3813.0044  6411.985  
586  4095  1352.5056  275.19995  1380.2197  
587  4095  -1539.7537  -9103.641  9232.937  
588  4095  -6173.493  8651.655  10628.412  
589  4095  -35266.29  16071.485  38755.69  
590  4095  4566.8325  566.79517  4601.871  
591  4095  -5740.032  -4266.4297  7151.95  
592  4095  -1172.6057  2806.3997  3041.5264  
593  4095  31.956345  -3828.1152  3828.2485  
594  4095  -4006.3252  1957.4124  4458.935  
595  4095  6471.9023  2253.6472  6853.061  
596  4095  2.9080963  5378.882  5378.883  
597  4095  -10227.237  -14297.822  17579.082  
598  4095  -6003.576  -3876.617  7146.404  
599  4095  -4001.257  -4843.291  6282.319  
600  4095  -4083.1116  -4105.5674  5790.292  
601  4095  -4379.893  -4297.8013  6136.331  
602  4095  -3151.7224  -2323.0977  3915.3718  
603  4095  -2098.1028  -9285.751  9519.832  
604  4095  12751.213  -17238.994  21442.395  
605  4095  -9784.992  -3234.7407  10305.805  
606  0  -1200.4883  -2022.2053  2351.6987  
607  0  -6332.4897  -7572.0938  9871.02  
608  0  -6303.2363  -1266.1365  6429.1436  
609  0  -3566.3076  -9403.416  10056.977  
610  0  -18269.422  -7730.6743  19837.719  
611  0  -9797.527  -15921.491  18694.53  
612  0  21933.238  23278.574  31983.73  
613  0  5694.3506  -3261.7864  6562.384  
614  0  -198.04288  4011.57  4016.4556  
615  0  4931.155  -872.4082  5007.7324  
616  0  -2099.712  -1942.6365  2860.529  
617  0  3067.1133  2004.5391  3664.0635  
618  0  1584.9529  -9010.306  9148.644  
619  0  11603.721  -13960.587  18153.355  
620  0  -3603.3997  1697.2671  3983.1147  
621  0  439.94678  424.7732  611.5435  
622  0  -166.37183  -106.39429  197.48248  
623  0  354.50714  -375.51978  516.4208  
624  0  550.4825  1450.51  1551.4542  
625  0  5831.0835  386.7942  5843.898  
626  0  3409.3052  5015.02  6064.1396  
627  0  -21170.996  -15215.594  26071.543  
628  0  -5852.0957  1555.689  6055.344  
629  0  -3041.103  -5562.923  6339.9067  
630  0  -7466.1465  165.93262  7467.99  
631  0  37.17389  -98.69141  105.46038  
632  0  -8279.655  -3071.6643  8831.07  
633  0  -3553.4165  15062.12  15475.601  
634  0  -23585.682  33379.26  40871.254  
635  0  9057.677  -15412.695  17877.156  
636  0  -5383.5454  -7165.0376  8962.161  
637  0  2339.1816  -3255.88  4009.0552  
638  0  -1366.8241  -8070.2314  8185.16  
639  0  -1070.7727  -1369.4375  1738.3651  
640  0  4592.205  -6302.8604  7798.3584  
641  0  -1180.1477  -1657.623  2034.8127  
642  0  -18435.418  -12017.635  22006.549  
643  0  -5249.788  -4739.883  7072.96  
644  0  -4312.627  -6126.4453  7492.135  
645  0  -3540.8823  -6184.421  7126.353  
646  0  -4362.367  -6355.6094  7708.6978  
647  0  -1421.3025  -6584.328  6735.984  
648  0  -4324.4404  -15042.488  15651.748  
649  0  5294.1826  -29773.07  30240.107  
650  0  -11013.272  9131.304  14306.393  
651  0  -578.3817  -1008.4822  1162.5669  
652  0  -8600.445  -3185.6094  9171.465  
653  0  -3747.9421  1054.6453  3893.5005  
654  0  -6286.5034  -7320.0605  9649.011  
655  0  -13628.783  1555.44  13717.256  
656  0  -5074.8564  -9161.669  10473.315  
657  0  49540.617  9109.88  50371.246  
658  0  2214.2944  -8072.4224  8370.609  
659  0  2752.9373  1393.0637  3085.3347  
660  0  3479.9353  -6097.5312  7020.6724  
661  0  -2052.2566  -2961.7898  3603.3257  
662  0  3550.0806  -3968.048  5324.329  
663  0  -2445.3477  -10651.458  10928.554  
664  0  2662.1414  -16026.105  16245.709  
665  0  -1684.0117  6777.209  6983.2983  
666  0  408.06653  577.3364  706.99054  
667  0  266.16077  -207.84766  337.70135  
668  0  -183.52783  -1293.6172  1306.571  
669  0  1082.6018  480.4214  1184.4119  
670  0  3380.5715  -3673.4866  4992.271  
671  0  -396.2251  2480.9326  2512.3735  
672  0  -42379.504  -2491.6294  42452.688  
673  0  -1041.6692  3963.5083  4098.106  
674  0  -4594.8916  -4072.739  6140.0513  
675  0  -4303.1685  4404.084  6157.371  
676  4095  1197.8713  -59.87085  1199.3666  
677  4095  -6657.5864  4433.6367  7998.787  
678  4095  6094.6914  16668.291  17747.598  
679  4095  -2357.1628  38240.1  38312.684  
680  4095  -2526.5925  -42769.367  42843.93  
681  4095  -8591.16  -12695.662  15329.314  
682  4095  205.86157  -12198.358  12200.096  
683  4095  -5689.14  -12029.842  13307.269  
684  4095  -1844.1062  -6842.1494  7086.306  
685  4095  -1805.4536  -12117.772  12251.534  
686  4095  -5357.0938  -5721.257  7837.8076  
687  4095  -22177.527  -5676.77  22892.541  
688  4095  -3503.7195  -7912.4727  8653.512  
689  4095  -4016.6055  -8778.9375  9654.163  
690  4095  -3953.1946  -10105.564  10851.275  
691  4095  -5148.4355  -9615.438  10907.018  
692  4095  -2834.222  -12876.228  13184.462  
693  4095  -10422.882  -19314.887  21947.695  
694  4095  -8585.377  -36211.586  37215.42  
695  4095  4828.7266  30220.49  30603.834  
696  4095  4331.899  -54.59131  4332.2427  
697  4095  -4352.931  1562.508  4624.872  
698  4095  2867.0164  125.302  2869.7532  
699  4095  -3572.5374  -5765.307  6782.462  
700  4095  -1174.5242  2881.2734  3111.4697  
701  4095  5580.7427  -12753.914  13921.459  
702  4095  70682.41  -29080.176  76430.74  
703  4095  -10683.863  -5872.2803  12191.333  
704  4095  386.30664  -656.26025  761.5185  
705  4095  -2771.0496  -7771.122  8250.397  
706  4095  -4100.167  -2685.2852  4901.2373  
707  4095  -656.6128  -6892.994  6924.1973  
708  4095  -7034.045  -8093.458  10722.959  
709  4095  -4418.3086  -11928.785  12720.746  
710  4095  4181.8647  9393.451  10282.263  
711  4095  191.43457  134.20776  233.79248  
712  0  -220.23438  -1361.8457  1379.5387  
713  0  -2295.3674  -1648.6799  2826.1028  
714  0  -421.781  -396.5857  578.94684  
715  0  -3223.48  -3930.7852  5083.4927  
716  0  -7408.5527  6713.616  9997.965  
717  0  -59477.54  32035.34  67556.2  
718  0  13723.936  -5468.3154  14773.249  
719  0  -448.11108  -6648.494  6663.5786  
720  0  4604.118  1476.8687  4835.188  
721  0  5207.88  -4766.324  7059.735  
722  0  2027.8748  4535.767  4968.4463  
723  0  17137.55  7193.672  18586.139  
724  0  17749.004  26075.514  31542.979  
725  0  -49099.73  -74481.25  89208.97  
726  0  -16449.812  -17543.61  24049.418  
727  0  -7456.658  -19857.72  21211.572  
728  0  -11121.231  -14465.362  18246.328  
729  0  -5296.8643  -12288.998  13381.9375  
730  0  -8368.001  -14663.111  16882.84  
731  0  -8425.367  -8188.503  11748.975  
732  0  -19336.732  -1673.1946  19408.988  
733  0  -2812.6892  -15935.155  16181.482  
734  0  -4373.934  -14759.056  15393.538  
735  0  -6308.3486  -16118.023  17308.55  
736  0  -7020.526  -14649.086  16244.491  
737  0  -7461.625  -19775.82  21136.672  
738  0  -17252.047  -21067.783  27230.215  
739  0  -22046.824  -35756.566  42007.08  
740  0  64834.824  50859.07  82402.664  
741  0  14225.283  -6786.25  15761.087  
742  0  6161.8926  -2323.0386  6585.243  
743  0  10868.765  -10829.001  15342.663  
744  0  2924.1726  -13447.42  13761.682  
745  0  12037.586  -12706.211  17502.893  
746  0  14135.024  -35221.684  37952.152  
747  0  75311.49  -101973.6  126769.23  
748  0  -31621.592  27158.025  41683.13  
749  0  -6204.047  7262.825  9551.901  
750  0  -10094.061  -649.1738  10114.914  
751  0  -6280.4487  1598.6924  6480.7295  
752  0  -5401.837  -4300.789  6904.8267  
753  0  -8642.235  -2448.8694  8982.493  
754  0  -6501.393  -5381.9644  8440.003  
755  0  10791.814  6812.406  12762.137  
756  0  -1469.3398  -259.25598  1492.0366  
757  0  -2779.2747  -1792.1226  3306.9731  
758  0  -5376.866  948.1655  5459.8267  
759  0  -3585.8345  2455.6318  4346.0713  
760  0  -10409.937  5616.6973  11828.527  
761  0  -12668.032  26410.816  29291.812  
762  0  -63827.688  113463.25  130184.03  
763  0  37426.41  -74353.84  83242.0  
764  0  7973.676  -35154.74  36047.68  
765  0  14444.151  -24847.773  28741.004  
766  0  8871.7  -26905.29  28330.225  
767  0  11389.119  -16046.007  19677.053  
768  0  22066.684  -21251.635  30636.098  
769  0  27353.18  -7141.233  28270.012  
770  0  -212665.16  -108270.336  238639.75  
771  0  -25042.74  -27428.688  37141.242  
772  0  -15951.276  -33133.293  36773.066  
773  0  -14026.592  -26123.475  29650.99  
774  0  -8231.226  -28043.36  29226.41  
775  0  -11129.145  -27973.432  30105.992  
776  0  -8274.096  -24583.24  25938.318  
777  0  -12227.488  -18113.008  21853.89  
778  0  -5591.503  -41869.082  42240.797  
779  0  -6073.3965  -38616.35  39091.03  
780  0  -9564.63  -39390.758  40535.34  
781  0  -8581.035  -39411.527  40334.883  
782  4095  -12272.521  -46122.395  47727.246  
783  4095  -19794.3  -44472.48  48678.7  
784  4095  -27929.014  -58025.504  64397.12  
785  4095  430565.28  30197.84  431622.97  
786  4095  24463.8  -60735.17  65477.008  
787  4095  17394.025  -60385.21  62840.477  
788  4095  15021.52  -82528.74  83884.68  
789  4095  8454.771  -96835.59  97203.99  
790  4095  18414.404  -132880.02  134149.88  
791  4095  15111.637  -220134.12  220652.2  
792  4095  62738.637  -633381.44  636481.06  
793  4095  -53513.09  520036.6  522782.66  
794  4095  -12291.919  161952.12  162417.92  
795  4095  -13480.704  89624.516  90632.68  
796  4095  -6161.1353  57474.56  57803.848  
797  4095  -6991.544  34171.98  34879.88  
798  4095  -6238.412  23115.824  23942.83  
799  4095  -3844.3057  9431.251  10184.654  
