n v(n)    Re(T)       Im(T)        Mod(T) 
   
0  0  1469191.0  0.0  1469191.0  
1  0  9068.102  -8537.335  12454.579  
2  0  1811.1914  -1381.384  2277.8577  
3  0  4251.9263  -14250.246  14871.06  
4  0  5977.1406  -19633.873  20523.527  
5  0  8024.2144  -27645.646  28786.625  
6  0  6723.669  -42932.96  43456.26  
7  0  12760.7705  -62449.418  63739.84  
8  0  17775.363  -109033.26  110472.69  
9  0  22451.098  -261238.0  262200.97  
10  0  -54161.637  953245.9  954783.3  
11  0  -4940.9688  181866.44  181933.55  
12  0  1900.4077  104132.125  104149.47  
13  0  8819.108  72336.68  72872.305  
14  0  6847.82  57657.445  58062.668  
15  0  10987.762  46015.28  47308.953  
16  0  15177.678  37740.023  40677.65  
17  0  19136.365  37116.17  41758.96  
18  0  29501.908  23719.02  37854.383  
19  0  96629.44  36473.98  103284.07  
20  0  -120789.71  4849.984  120887.04  
21  0  -31807.234  4739.826  32158.453  
22  0  -24221.363  14152.958  28053.176  
23  0  -17340.887  9790.008  19913.578  
24  0  -13928.675  5867.6187  15114.13  
25  0  -9365.2295  4287.849  10300.153  
26  0  -9413.992  -4120.3687  10276.22  
27  0  -5520.8213  -13445.003  14534.358  
28  0  10165.6045  -43896.61  45058.316  
29  0  41331.566  -229921.58  233607.0  
30  0  -30208.926  138888.1  142135.44  
31  0  -14045.149  68403.57  69830.62  
32  0  -13806.628  48592.14  50515.53  
33  0  -6021.7783  38972.06  39434.543  
34  4095  -6994.418  34840.652  35535.797  
35  4095  -5654.431  31735.936  32235.729  
36  4095  -984.45874  26268.371  26286.812  
37  4095  -166.63013  31332.957  31333.4  
38  4095  4097.5312  22782.855  23148.396  
39  4095  145390.78  61679.426  157932.98  
40  4095  -29073.338  17880.809  34131.836  
41  4095  -10982.989  10768.728  15381.533  
42  4095  -13030.617  15528.601  20271.518  
43  4095  -12413.234  17190.148  21203.527  
44  4095  -13572.714  14934.04  20180.29  
45  4095  -12636.17  18215.19  22169.031  
46  4095  -14908.832  18516.287  23772.383  
47  4095  -23121.643  22849.52  32507.09  
48  4095  -12839.958  29132.553  31836.615  
49  4095  32451.566  -117044.73  121460.17  
50  4095  -7872.3076  -5150.3574  9407.412  
51  4095  -5688.699  6875.1006  8923.47  
52  4095  -12834.896  7250.1797  14741.088  
53  4095  -10105.316  7453.153  12556.549  
54  4095  -11951.425  7578.6533  14151.769  
55  4095  -16628.922  8744.239  18787.836  
56  4095  -16268.531  2962.6697  16536.098  
57  4095  -26130.28  4420.8867  26501.617  
58  4095  -62917.37  -13321.564  64312.203  
59  4095  107024.91  55828.94  120711.234  
60  4095  19567.514  26345.941  32817.62  
61  4095  14739.5625  15903.308  21683.402  
62  4095  8721.352  12770.2705  15464.21  
63  4095  5894.0645  15029.254  16143.683  
64  4095  2813.9333  11791.245  12122.363  
65  4095  1392.1987  13185.545  13258.839  
66  4095  1433.8506  15387.005  15453.668  
67  4095  -16498.111  20528.865  26336.705  
68  4095  -18849.84  45069.406  48852.508  
69  4095  11967.829  -19517.303  22894.41  
70  0  -1201.6797  -9142.076  9220.716  
71  0  2473.106  1799.6157  3058.5732  
72  0  -3427.5745  2718.564  4374.798  
73  0  -3383.4612  3563.933  4914.2065  
74  0  -2696.3499  3388.991  4330.769  
75  0  -8659.27  5916.725  10487.64  
76  0  -7871.9297  1767.1855  8067.851  
77  0  -15876.289  -3214.6892  16198.48  
78  0  -101696.016  -50703.88  113635.22  
79  0  29152.44  21931.049  36480.62  
80  0  9430.075  16969.234  19413.43  
81  0  8389.749  14442.567  16702.564  
82  0  7603.8105  9243.715  11969.302  
83  0  7165.6343  11754.443  13766.382  
84  0  6829.3184  9538.325  11731.122  
85  0  6112.1807  7320.4785  9536.675  
86  0  14286.053  9324.409  17059.775  
87  0  -2199.84  8632.783  8908.661  
88  0  -1075.981  14274.168  14314.664  
89  0  4341.837  12805.59  13521.638  
90  0  -761.4822  1631.7261  1800.6624  
91  0  3931.509  6765.247  7824.6616  
92  0  2424.477  7200.662  7597.8696  
93  0  1452.0457  8069.328  8198.933  
94  0  5830.081  8378.925  10207.655  
95  0  3018.758  12719.707  13073.02  
96  0  8083.1094  18844.488  20504.912  
97  0  22974.734  23169.156  32628.947  
98  0  -76416.96  -49870.344  91250.23  
99  0  -15053.94  -5325.2646  15968.08  
100  0  -10099.343  327.2273  10104.643  
101  0  -8430.03  6105.5557  10408.805  
102  0  -5939.376  3243.443  6767.282  
103  0  -4968.7627  6260.8022  7992.887  
104  0  -3701.0784  8326.816  9112.291  
105  0  -6198.9873  4884.2026  7891.95  
106  0  5683.7026  10055.888  11550.989  
107  0  -11373.155  16589.27  20113.492  
108  0  11090.424  -9187.219  14401.476  
109  0  6249.266  8766.78  10766.14  
110  0  1065.6527  -107.31372  1071.0425  
111  0  2416.108  1961.0803  3111.8184  
112  0  3380.3132  2663.6208  4303.649  
113  0  620.1633  2936.6868  3001.455  
114  0  5072.2256  2791.3281  5789.558  
115  3154  4541.3027  4079.147  6104.332  
116  4095  6698.4004  19798.793  20901.215  
117  4095  44865.074  48721.465  66231.836  
118  4095  -23968.02  -18254.385  30127.871  
119  4095  -13401.219  -6249.999  14786.992  
120  4095  -7840.965  -5410.7485  9526.643  
121  4095  -8714.756  701.6223  8742.954  
122  4095  -7315.0938  -931.3484  7374.1445  
123  4095  -7127.416  -454.4375  7141.8887  
124  4095  -5943.339  4729.432  7595.4463  
125  4095  -11137.696  -245.26587  11140.396  
126  4095  -1260.0681  4101.425  4290.6245  
127  4095  -36273.23  31491.104  48035.785  
128  4095  143.89844  -5360.331  5362.262  
129  4095  869.4597  7126.9043  7179.744  
130  4095  -740.3567  1670.2268  1826.9607  
131  4095  -1744.4717  441.06787  1799.3672  
132  4095  907.65247  449.22095  1012.7351  
133  4095  -2277.744  -1085.7947  2523.305  
134  4095  -564.05286  -3120.3635  3170.9343  
135  4095  1313.1603  -12526.071  12594.715  
136  4095  -7069.87  -1894.6765  7319.3486  
137  4095  30992.48  41162.113  51525.27  
138  4095  5964.3545  5818.633  8332.468  
139  4095  -1947.4447  3924.3809  4381.0166  
140  4095  1462.9357  -831.3491  1682.6533  
141  4095  -501.37683  1651.5054  1725.9342  
142  4095  -317.88745  596.7903  676.1739  
143  4095  83.87085  -3315.459  3316.5195  
144  4095  2555.4084  2211.8562  3379.707  
145  4095  933.69885  -4237.0728  4338.7305  
146  4095  18462.725  -12018.345  22029.816  
147  4095  -40127.402  28453.945  49191.824  
148  4095  -13685.131  3552.9  14138.809  
149  4095  -9032.567  9083.759  12810.229  
150  4095  -6130.4077  7745.0986  9877.674  
151  4095  -7622.2485  5338.458  9305.794  
152  0  -4093.5044  5838.128  7130.2534  
153  0  -5086.081  4746.0996  6956.5566  
154  0  -6958.475  5054.249  8600.338  
155  0  435.87012  -12473.372  12480.985  
156  0  -12680.26  -14745.391  19447.766  
157  0  5133.3447  15332.652  16169.151  
158  0  7611.8457  7855.4053  10938.354  
159  0  -1446.5725  6994.963  7142.974  
160  0  986.23987  2832.852  2999.6199  
161  0  78.163574  2971.298  2972.326  
162  0  -788.82715  4115.2354  4190.1562  
163  0  -416.9126  -2184.1077  2223.5427  
164  0  937.5082  2313.8452  2496.5579  
165  0  4188.2754  402.18652  4207.5415  
166  0  45477.984  -21568.188  50333.227  
167  0  -15205.052  11238.535  18907.625  
168  0  -9165.121  2202.5928  9426.073  
169  0  -8870.922  3874.6309  9680.187  
170  0  -5792.81  6477.8223  8690.157  
171  0  -8245.763  4946.9214  9615.854  
172  0  -6720.2017  6449.285  9314.204  
173  0  -4868.45  7422.3057  8876.51  
174  0  -12080.876  14540.301  18904.178  
175  0  -1040.9547  -938.81177  1401.7683  
176  0  -6679.478  -2825.0933  7252.35  
177  0  -8328.385  2494.3481  8693.893  
178  0  2305.3818  4266.383  4849.413  
179  0  -3754.6377  5440.9404  6610.6836  
180  0  -3046.8555  4053.48  5070.9  
181  0  -2749.6218  2826.5498  3943.324  
182  0  -5129.6377  6319.073  8139.0337  
183  0  -6187.576  601.3291  6216.727  
184  0  -12448.069  858.697  12477.651  
185  0  -17473.244  8577.719  19465.137  
186  0  43636.035  -14778.85  46070.793  
187  0  7329.1055  -132.47656  7330.3027  
188  0  3432.4146  -618.2471  3487.6494  
189  0  -656.71954  -2591.9336  2673.8362  
190  0  685.1831  725.677  998.03955  
191  0  -1909.7074  -416.84424  1954.6718  
192  0  -4106.2583  -364.25757  4122.383  
193  0  838.9773  -235.64087  871.44104  
194  0  -11280.271  9868.428  14987.675  
195  0  -4465.021  -4194.384  6126.114  
196  0  -86.49736  10675.925  10676.275  
197  4095  -9584.201  3563.5662  10225.259  
198  4095  -62.35506  4923.61  4924.005  
199  4095  -2112.4395  5432.958  5829.188  
200  4095  -2883.4736  6001.597  6658.347  
201  4095  -822.507  3809.167  3896.9565  
202  4095  -2647.1226  8055.1846  8478.989  
203  4095  -1843.0327  6493.6753  6750.155  
204  4095  -14171.059  -1777.4031  14282.089  
205  4095  -39380.75  10249.627  40692.73  
206  4095  15058.785  -1864.7126  15173.799  
207  4095  6925.2725  -691.3252  6959.6934  
208  4095  5275.1177  2488.477  5832.614  
209  4095  1999.1495  -1526.6748  2515.4194  
210  4095  3009.675  420.63794  3038.9275  
211  4095  2903.7842  103.28833  2905.6206  
212  4095  -2119.8733  -2019.0393  2927.5217  
213  4095  6144.8657  -4004.1814  7334.3604  
214  4095  -4660.7783  4476.155  6462.106  
215  4095  -4961.6934  -21681.488  22241.973  
216  4095  2435.2073  5747.7144  6242.3115  
217  4095  -7221.77  1003.20337  7291.1167  
218  4095  -2241.8003  2630.6934  3456.3298  
219  4095  -894.65857  2704.168  2848.322  
220  4095  -2617.928  4768.9834  5440.2896  
221  4095  637.936  3005.9365  3072.884  
222  4095  1100.8752  6070.1113  6169.1313  
223  4095  8605.486  13820.865  16280.992  
224  4095  2043.4215  -557.2986  2118.054  
225  4095  -34019.133  5770.167  34505.016  
226  4095  -7289.9224  5303.79  9015.162  
227  4095  -2720.9658  713.6665  2813.001  
228  4095  -958.41614  5568.0693  5649.952  
229  4095  -1782.186  2547.6738  3109.1523  
230  4095  -1001.69543  3066.4126  3225.8767  
231  4095  2215.1187  5277.316  5723.357  
232  4095  -4381.4756  3261.3123  5462.004  
233  4095  3268.2458  3097.8176  4503.0996  
234  0  -1326.1755  17119.182  17170.473  
235  0  -2488.4219  -25833.637  25953.209  
236  0  3217.666  -4225.8525  5311.422  
237  0  -3480.4077  -5142.775  6209.7803  
238  0  -3940.068  -3132.546  5033.585  
239  0  -1384.5684  -3396.0103  3667.4126  
240  0  -4271.817  -1323.7344  4472.2134  
241  0  -2921.8257  -2004.615  3543.3806  
242  0  -2879.7104  -4162.551  5061.577  
243  0  8466.976  14014.063  16373.26  
244  0  12947.289  2656.4858  13217.004  
245  0  -11727.542  1138.0276  11782.629  
246  0  -9476.356  6212.538  11331.238  
247  0  -5074.642  -117.398926  5076.0  
248  0  -3466.4214  3829.898  5165.675  
249  0  -3235.2512  2905.48  4348.409  
250  0  -3733.664  1276.2954  3945.7795  
251  0  1723.9407  5144.093  5425.28  
252  0  -3430.296  2964.0527  4533.4907  
253  0  -2548.4365  4608.627  5266.305  
254  0  -5619.8066  35415.316  35858.426  
255  0  -2561.9958  -8471.967  8850.878  
256  0  1790.6259  -1583.8413  2390.5845  
257  0  305.1847  -2942.878  2958.66  
258  0  -3181.1985  -2517.6475  4056.9165  
259  0  -484.37378  -3829.9094  3860.4175  
260  0  -2908.362  -3794.6643  4781.0093  
261  0  -4902.9224  -3155.6428  5830.6714  
262  0  -7782.0186  -15032.778  16927.617  
263  0  287.97546  5815.7515  5822.8765  
264  0  4773.711  1709.2473  5070.4873  
265  0  1136.535  -2502.3826  2748.387  
266  0  -5477.172  4321.665  6976.833  
267  0  -3578.0085  -898.6758  3689.141  
268  0  -3086.1797  463.93457  3120.8557  
269  0  -2544.767  1572.493  2991.4167  
270  0  -4365.753  -2436.1543  4999.4644  
271  0  1393.6028  704.8406  1561.707  
272  0  4456.3965  -4197.2383  6121.787  
273  0  59.615234  -10149.154  10149.329  
274  0  -9194.259  33413.34  34655.242  
275  0  -4793.841  7788.501  9145.581  
276  0  -2471.1997  6272.076  6741.3477  
277  0  915.395  4602.5684  4692.716  
278  0  -2432.144  3931.4944  4622.983  
279  4095  95.42871  2711.6233  2713.302  
280  4095  1181.3201  836.4939  1447.4941  
281  4095  -1980.0121  5332.3125  5688.058  
282  4095  -5186.5103  -13800.075  14742.522  
283  4095  1322.3853  1346.498  1887.2625  
284  4095  -6772.9395  -768.75684  6816.428  
285  4095  1408.4583  -4964.4077  5160.339  
286  4095  -4635.993  1413.0676  4846.565  
287  4095  -4241.545  -541.15063  4275.927  
288  4095  -4442.0527  -1446.0146  4671.487  
289  4095  -4226.629  1798.9607  4593.5444  
290  4095  -7349.034  -2284.3103  7695.8677  
291  4095  -6832.641  218.42993  6836.132  
292  4095  7879.5293  -4753.7793  9202.467  
293  4095  8244.33  -24746.396  26083.578  
294  4095  -5807.1475  12199.569  13511.197  
295  4095  -3906.481  7378.9585  8349.229  
296  4095  -5629.7236  5344.706  7762.7104  
297  4095  -1085.4343  5422.1025  5529.68  
298  4095  -3345.9927  5331.702  6294.6577  
299  4095  -2973.2334  5747.5493  6471.0464  
300  4095  1908.2871  2762.4216  3357.4592  
301  4095  -1101.2439  12440.633  12489.278  
302  4095  -3124.1003  -4850.044  5769.1357  
303  4095  11692.588  6746.01  13499.083  
304  4095  -6328.074  2102.1682  6668.106  
305  4095  1807.456  -2927.9019  3440.8584  
306  4095  -1938.9412  79.57324  1940.5734  
307  4095  -2765.9722  933.79175  2919.344  
308  4095  -3284.061  -1785.2756  3737.9495  
309  4095  -3788.3477  2134.9258  4348.504  
310  4095  -7012.704  306.3125  7019.3906  
311  4095  -19446.238  2547.2766  19612.363  
312  4095  -1088.7397  4400.273  4532.9634  
313  4095  8975.213  -21037.465  22872.021  
314  4095  -1623.7571  -4740.4775  5010.86  
315  4095  -598.33154  473.0288  762.72986  
316  0  -5154.938  -671.44336  5198.4824  
317  0  -2405.3276  475.9242  2451.9595  
318  0  -3281.018  888.3484  3399.1533  
319  0  -7027.3906  2601.5928  7493.4976  
320  0  -835.08325  -1994.3062  2162.0872  
321  0  -4378.401  7164.1143  8396.126  
322  0  -11300.478  -5042.159  12374.335  
323  0  14243.742  10588.654  17748.346  
324  0  -1333.3369  6700.2793  6831.6567  
325  0  3404.0254  2375.1233  4150.735  
326  0  2483.761  1294.0691  2800.6577  
327  0  1453.2202  3481.9128  3773.005  
328  0  1926.0925  -262.2744  1943.8673  
329  0  2085.516  1454.2883  2542.5051  
330  0  4609.6113  2335.0872  5167.3154  
331  0  -20540.84  1379.2566  20587.094  
332  0  -10402.8  10031.397  14451.546  
333  0  1826.1431  -5662.169  5949.366  
334  0  -2272.7239  -7069.9727  7426.29  
335  0  457.14404  -1020.0708  1117.8217  
336  0  -3284.9814  -2063.8032  3879.4827  
337  0  -2618.0786  -1425.2274  2980.8738  
338  0  -877.15234  -907.13  1261.8562  
339  0  -7672.0195  1742.9888  7867.5215  
340  0  -2210.7974  -1834.2023  2872.616  
341  0  -3586.4521  -17.324219  3586.494  
342  0  -21444.742  -15082.755  26217.674  
343  0  4135.6865  3633.0256  5504.796  
344  0  -2717.611  4258.2  5051.5024  
345  0  -619.49927  3923.0818  3971.6936  
346  0  1140.9631  1292.8446  1724.3097  
347  0  654.48975  4353.107  4402.033  
348  0  2430.526  2197.6099  3276.7278  
349  0  3392.436  254.64307  3401.9795  
350  0  17721.438  4771.831  18352.648  
351  0  -8659.902  -867.354  8703.23  
352  0  -7127.2324  5215.8364  8831.896  
353  0  -1633.4316  4401.786  4695.0845  
354  0  -3237.2202  -3867.1172  5043.232  
355  0  -80.650635  74.205444  109.59458  
356  0  -1337.7983  -478.24634  1420.7125  
357  0  -2539.7324  -965.8241  2717.1782  
358  0  2092.8555  -388.92322  2128.6863  
359  0  -4669.6396  2689.4795  5388.769  
360  0  -2355.1704  7772.3535  8121.349  
361  4095  4133.4062  6339.6177  7568.0776  
362  4095  -19697.316  -17481.434  26335.998  
363  4095  -5263.9653  -4827.205  7142.2153  
364  4095  -5933.6455  -2603.7844  6479.8022  
365  4095  -6591.033  535.4468  6612.747  
366  4095  -4261.5723  -1729.0988  4598.9976  
367  4095  -5035.4424  1090.0293  5152.072  
368  4095  -4073.0312  3013.6912  5066.746  
369  4095  -6540.9243  -2578.824  7030.9336  
370  4095  16032.512  6509.948  17303.781  
371  4095  -2404.0715  1805.5574  3006.5925  
372  4095  609.1272  -1615.2314  1726.2701  
373  4095  350.98584  6009.829  6020.0693  
374  4095  -1363.2332  -1818.8091  2272.9873  
375  4095  79.354004  -569.11536  574.62103  
376  4095  948.656  -326.4383  1003.24976  
377  4095  -1911.1619  -2435.1196  3095.5366  
378  4095  3853.123  -3126.9417  4962.2896  
379  4095  916.6763  -4852.639  4938.4614  
380  4095  -4150.4805  11521.745  12246.514  
381  4095  9975.758  18528.146  21043.002  
382  4095  -7951.958  -6422.012  10221.344  
383  4095  -5555.331  -3750.6748  6702.9297  
384  4095  -3547.507  -4378.9766  5635.6226  
385  4095  -6266.6006  -1328.679  6405.909  
386  4095  -4985.1895  -3273.4788  5963.8726  
387  4095  -5919.698  -3319.9873  6787.131  
388  4095  -6449.258  2699.5684  6991.466  
389  4095  -14944.418  -6427.8477  16268.155  
390  4095  5221.9595  3318.0483  6186.9463  
391  4095  -9796.314  6437.2295  11722.018  
392  4095  -831.4883  -3264.9563  3369.171  
393  4095  -1111.9482  5297.02  5412.4717  
394  4095  -1632.4521  892.3969  1860.4495  
395  4095  -1796.9143  -176.10278  1805.523  
396  4095  715.08936  1180.9554  1380.5826  
397  1244  -2469.7021  -1715.2284  3006.8982  
398  0  1571.2336  -3522.034  3856.6174  
399  0  7631.8726  -17570.994  19156.861  
400  0  -5615.0107  8.230299  5615.0166  
401  0  7596.549  17594.654  19164.535  
402  0  1556.4612  3511.9438  3841.3958  
403  0  -2475.0742  1692.2878  2998.3047  
404  0  710.44946  -1186.287  1382.7563  
405  0  -1800.3481  166.27937  1808.0106  
406  0  -1633.0713  -905.6451  1867.3818  
407  0  -1105.7029  -5302.7974  5416.8477  
408  0  -847.1421  3260.877  3369.1199  
409  0  -9786.508  -6461.887  11727.393  
410  0  5223.417  -3293.9727  6175.3013  
411  0  -14972.282  6393.7773  16280.345  
412  0  -6440.746  -2713.6912  6989.0864  
413  0  -5921.966  3313.2778  6785.83  
414  0  -4989.07  3260.7234  5960.129  
415  0  -6265.409  1305.7268  6400.0215  
416  0  -3553.7444  4367.753  5630.8403  
417  0  -5556.828  3726.6543  6690.761  
418  0  -7951.475  6381.5957  10195.623  
419  0  10023.261  -18524.219  21062.11  
420  0  -4134.672  -11519.121  12238.695  
421  0  914.05444  4862.644  4947.808  
422  0  3848.1055  3132.9685  4962.1978  
423  0  -1915.2446  2423.5583  3088.98  
424  0  953.3965  329.16052  1008.6186  
425  0  78.387695  569.1195  574.4925  
426  0  -1356.1597  1810.9792  2262.4797  
427  0  365.6599  -6015.6255  6026.729  
428  0  601.9365  1610.4711  1719.286  
429  0  -2394.529  -1812.0494  3002.8809  
430  0  16038.409  -6479.6973  17297.893  
431  0  -6560.698  2562.575  7043.405  
432  0  -4077.7112  -3023.4873  5076.338  
433  0  -5047.158  -1092.2983  5164.0024  
434  0  -4278.0107  1716.2338  4609.4287  
435  0  -6594.5156  -554.79016  6617.8115  
436  0  -5940.877  2594.876  6482.8545  
437  0  -5284.631  4818.2812  7151.445  
438  0  -19728.604  17428.846  26324.56  
439  0  4160.64  -6349.979  7591.651  
440  0  -2336.0144  -7788.0244  8130.823  
441  0  -4663.4033  -2705.9983  5391.6377  
442  0  2096.9265  390.51807  2132.9805  
443  4095  -2536.4043  954.5139  2710.0635  
444  4095  -1337.6211  472.42224  1418.5955  
445  4095  -78.36279  -80.479126  112.32817  
446  4095  -3240.4124  3850.7422  5032.7417  
447  4095  -1630.6565  -4417.073  4708.458  
448  4095  -7110.5283  -5238.5  8831.846  
449  4095  -8644.987  844.72314  8686.159  
450  4095  17750.152  -4727.637  18368.953  
451  4095  3393.0032  -254.48999  3402.5337  
452  4095  2431.9175  -2194.4873  3275.6675  
453  4095  664.15894  -4353.8643  4404.23  
454  4095  1140.0574  -1291.4531  1722.6671  
455  4095  -621.20483  -3926.938  3975.7688  
456  4095  -2728.5566  -4258.9395  5058.022  
457  4095  4130.59  -3617.4648  5490.7036  
458  4095  -21467.092  15033.574  26207.717  
459  4095  -3578.8235  -1.4794922  3578.8237  
460  4095  -2210.871  1820.7438  2864.0984  
461  4095  -7663.2554  -1763.7494  7863.606  
462  4095  -875.5884  899.21655  1255.0879  
463  4095  -2618.8027  1412.0215  2975.2197  
464  4095  -3292.9023  2043.537  3875.4678  
465  4095  448.4431  1017.87  1112.2772  
466  4095  -2284.5957  7058.288  7418.8145  
467  4095  1815.0701  5656.885  5940.945  
468  4095  -10393.207  -10068.126  14470.174  
469  4095  -20531.79  -1425.5564  20581.219  
470  4095  4637.1675  -2326.2031  5187.923  
471  4095  2100.4207  -1451.2463  2553.0144  
472  4095  1935.0603  266.69995  1953.3528  
473  4095  1465.782  -3484.1904  3779.9602  
474  4095  2493.6418  -1302.3027  2813.2263  
475  4095  3413.093  -2379.8616  4160.883  
476  4095  -1321.082  -6704.2554  6833.1763  
477  4095  14262.631  -10549.215  17740.027  
478  4095  -11328.896  5024.0596  12392.944  
479  0  -4356.8135  -7176.832  8395.758  
480  0  -838.96533  1993.8933  2163.209  
481  0  -7021.543  -2615.6414  7492.9062  
482  0  -3286.704  -895.022  3406.3894  
483  0  -2398.4019  -480.51013  2446.0625  
484  0  -5152.5166  660.3081  5194.6543  
485  0  -593.4978  -466.31323  754.7766  
486  0  -1624.4094  4747.288  5017.514  
487  0  8923.893  21050.4  22863.84  
488  0  -1098.0889  -4421.1523  4555.479  
489  0  -19442.957  -2598.1038  19615.777  
490  0  -7001.6133  -325.9773  7009.1973  
491  0  -3774.5208  -2146.0115  4341.9316  
492  0  -3280.5315  1770.7461  3727.9255  
493  0  -2757.0789  -942.8303  2913.8313  
494  0  -1929.0284  -94.74878  1931.3539  
495  0  1793.6863  2919.6216  3426.5872  
496  0  -6315.005  -2128.7285  6664.1406  
497  0  11709.069  -6731.077  13505.913  
498  0  -3141.2283  4835.9844  5766.6333  
499  0  -1076.0248  -12455.068  12501.462  
500  0  1919.3152  -2768.769  3368.9543  
501  0  -2975.1016  -5755.6416  6479.0923  
502  0  -3322.5842  -5348.046  6296.1226  
503  0  -1079.0917  -5421.747  5528.09  
504  0  -5617.6206  -5353.417  7759.9443  
505  0  -3885.5989  -7380.8086  8341.116  
506  0  -5766.127  -12191.291  13486.134  
507  0  8201.546  24773.664  26095.973  
508  0  7862.266  4758.4907  9190.129  
509  0  -6844.247  -237.54565  6848.368  
510  0  -7358.6123  2255.0508  7696.3906  
511  0  -4210.12  -1818.6653  4586.137  
512  0  -4442.5312  1430.7539  4667.241  
513  0  -4239.984  526.83057  4272.589  
514  0  -4625.9385  -1425.0068  4840.449  
515  0  1406.3962  4965.7754  5161.0923  
516  0  -6765.795  756.1118  6807.9136  
517  0  1331.1296  -1340.7534  1889.319  
518  0  -5212.414  13777.925  14730.937  
519  0  -1963.3159  -5362.05  5710.1826  
520  0  1181.7825  -839.56323  1449.647  
521  0  99.42554  -2732.2917  2734.1  
522  0  -2419.2368  -3951.6736  4633.404  
523  0  919.3987  -4621.544  4712.108  
524  0  -2464.4863  -6292.1377  6757.5654  
525  4095  -4776.51  -7809.073  9154.052  
526  4095  -9123.758  -33422.28  34645.227  
527  4095  49.291016  10175.906  10176.026  
528  4095  4449.007  4209.628  6124.919  
529  4095  1399.1648  -702.595  1565.6633  
530  4095  -4373.669  2427.4329  5002.1406  
531  4095  -2542.308  -1580.8242  2993.716  
532  4095  -3080.133  -464.56982  3114.9712  
533  4095  -3581.333  890.8374  3690.4656  
534  4095  -5465.5415  -4334.793  6975.8564  
535  4095  1148.6377  2511.4902  2761.6936  
536  4095  4779.8267  -1698.4906  5072.634  
537  4095  294.87622  -5801.0244  5808.514  
538  4095  -7818.0347  15020.849  16933.621  
539  4095  -4904.412  3133.4553  5819.948  
540  4095  -2898.8765  3777.384  4761.5244  
541  4095  -488.5127  3820.7322  3851.8357  
542  4095  -3184.1196  2495.6396  4045.5947  
543  4095  307.661  2930.7808  2946.885  
544  4095  1789.4167  1570.8899  2381.1147  
545  4095  -2588.2695  8422.65  8811.366  
546  4095  -5547.6875  -35443.895  35875.43  
547  4095  -2548.796  -4599.1865  5258.2197  
548  4095  -3416.6104  -2974.3918  4529.9263  
549  4095  1738.6234  -5141.257  5427.277  
550  4095  -3734.312  -1285.6309  3949.4219  
551  4095  -3227.8203  -2916.7664  4350.4424  
552  4095  -3460.4307  -3835.3577  5165.709  
553  4095  -5078.978  111.931885  5080.2114  
554  4095  -9460.134  -6226.8794  11325.554  
555  4095  -11695.451  -1160.5107  11752.888  
556  4095  12973.341  -2634.5488  13238.143  
557  4095  8500.925  -13987.662  16368.274  
558  4095  -2889.5544  4168.6133  5072.165  
559  4095  -2927.2266  2003.0793  3546.968  
560  4095  -4275.0703  1319.1548  4473.9688  
561  0  -1385.6917  3395.4446  3667.313  
562  0  -3946.4036  3133.3633  5039.054  
563  0  -3483.6921  5134.3745  6204.6685  
564  0  3213.5107  4235.4995  5316.588  
565  0  -2540.9678  25804.965  25929.766  
566  0  -1286.646  -17146.83  17195.035  
567  0  3280.6057  -3103.413  4515.9214  
568  0  -4376.7646  -3284.8496  5472.322  
569  0  2232.313  -5284.3203  5736.4854  
570  0  -993.7973  -3068.8472  3225.749  
571  0  -1777.2588  -2555.5596  3112.8015  
572  0  -953.9051  -5575.5503  5656.562  
573  0  -2733.5012  -723.1741  2827.545  
574  0  -7294.5645  -5322.3286  9029.831  
575  0  -33997.824  -5843.9907  34496.438  
576  0  2077.9355  549.39575  2149.3374  
577  0  8649.684  -13806.497  16292.219  
578  0  1113.9304  -6055.2935  6156.9004  
579  0  650.82776  -3001.6611  3071.408  
580  0  -2605.667  -4769.892  5435.1973  
581  0  -879.24603  -2703.73  2843.102  
582  0  -2241.5896  -2628.0977  3454.218  
583  0  -7206.293  -1011.28394  7276.906  
584  0  2449.8154  -5733.96  6235.374  
585  0  -4994.499  21673.258  22241.293  
586  0  -4642.252  -4491.7954  6459.623  
587  0  6133.8906  4016.151  7331.718  
588  0  -2121.0728  2001.7021  2916.4639  
589  0  2911.8186  -109.8418  2913.8896  
590  0  3011.5376  -416.55396  3040.21  
591  0  1998.8816  1520.6548  2511.557  
592  0  5277.172  -2481.6272  5831.5537  
593  0  6900.3916  694.4866  6935.2515  
594  0  15016.981  1879.137  15134.097  
595  0  -39379.48  -10343.529  40715.254  
596  0  -14152.722  1742.6423  14259.605  
597  0  -1817.4724  -6511.9565  6760.827  
598  0  -2615.9263  -8064.413  8478.079  
599  0  -820.59106  -3786.4106  3874.3098  
600  0  -2864.396  -6012.622  6660.059  
601  0  -2093.2407  -5430.0234  5819.52  
602  0  -54.317085  -4916.762  4917.062  
603  0  -9564.247  -3592.0867  10216.551  
604  0  -58.0493  -10677.482  10677.641  
605  0  -4474.483  4187.602  6128.3774  
606  2878  -11248.642  -9889.816  14977.998  
607  4095  845.20734  242.44507  879.29236  
608  4095  -4096.7563  353.34033  4111.966  
609  4095  -1897.5737  412.24268  1941.8368  
610  4095  700.62274  -724.24023  1007.66864  
611  4095  -648.3235  2595.5422  2675.2874  
612  4095  3453.8462  623.8213  3509.7302  
613  4095  7356.032  145.4541  7357.47  
614  4095  43576.145  14859.495  46040.035  
615  4095  -17506.895  -8632.838  19519.664  
616  4095  -12440.25  -892.7361  12472.241  
617  4095  -6183.9727  -626.30273  6215.607  
618  4095  -5110.12  -6335.044  8139.1714  
619  4095  -2744.5793  -2836.582  3947.0132  
620  4095  -3031.1184  -4068.9521  5073.86  
621  4095  -3738.6785  -5453.047  6611.614  
622  4095  2312.8958  -4257.8345  4845.476  
623  4095  -8317.18  -2511.9897  8688.243  
624  4095  -6686.711  2805.382  7251.3633  
625  4095  -1044.2747  917.3938  1390.0076  
626  4095  -12047.215  -14577.131  18911.059  
627  4095  -4839.0117  -7453.656  8886.677  
628  4095  -6701.164  -6464.728  9311.192  
629  4095  -8221.683  -4961.1943  9602.578  
630  4095  -5770.82  -6490.547  8685.02  
631  4095  -8851.16  -3889.2969  9667.972  
632  4095  -9139.503  -2220.0762  9405.277  
633  4095  -15132.474  -11252.798  18857.816  
634  4095  45461.098  21662.299  50358.383  
635  4095  4177.4673  -407.72632  4197.3174  
636  4095  931.254  -2321.7908  2501.5889  
637  4095  -420.4037  2178.1973  2218.3965  
638  4095  -779.0177  -4127.457  4200.3296  
639  4095  93.17212  -2975.2195  2976.678  
640  4095  1002.204  -2834.6318  3006.5845  
641  4095  -1431.487  -7007.8174  7152.5283  
642  4095  7623.265  -7847.5576  10940.674  
643  0  5156.71  -15307.681  16152.918  
644  0  -12720.108  14737.557  19467.838  
645  0  407.75208  12458.161  12464.832  
646  0  -6950.581  -5091.4385  8615.876  
647  0  -5079.0127  -4772.8394  6969.675  
648  0  -4080.582  -5860.3027  7141.0293  
649  0  -7615.3394  -5365.176  9315.498  
650  0  -6111.4805  -7764.9326  9881.517  
651  0  -9014.944  -9121.721  12824.781  
652  0  -13674.367  -3586.1328  14136.784  
653  0  -40030.367  -28528.045  49155.668  
654  0  18489.03  12083.924  22087.676  
655  0  943.84863  4233.65  4337.585  
656  0  2579.472  -2202.8567  3392.087  
657  0  88.94702  3310.214  3311.409  
658  0  -300.98975  -607.49316  677.9696  
659  0  -479.71997  -1660.291  1728.2064  
660  0  1479.3264  821.5056  1692.1224  
661  0  -1916.3977  -3936.2224  4377.9478  
662  0  5999.8936  -5829.9805  8365.847  
663  0  31074.252  -41093.69  51519.906  
664  0  -7091.419  1916.208  7345.7524  
665  0  1291.0405  12530.572  12596.905  
666  0  -579.24304  3111.1895  3164.6519  
667  0  -2281.5906  1073.0188  2521.3142  
668  0  908.77563  -447.70068  1013.0691  
669  0  -1742.4614  -461.13037  1802.4464  
670  0  -737.5906  -1694.1702  1847.7697  
671  0  877.15576  -7132.8057  7186.5376  
672  0  110.299805  5338.8027  5339.942  
673  0  -36213.727  -31584.857  48052.44  
674  0  -1231.6289  -4088.7732  4270.243  
675  0  -11137.811  220.41309  11139.991  
676  0  -5922.3887  -4747.0166  7590.05  
677  0  -7110.521  449.1919  7124.6953  
678  0  -7307.4414  917.468  7364.8115  
679  0  -8697.203  -713.66284  8726.435  
680  0  -7829.4863  5393.119  9507.187  
681  0  -13394.386  6202.955  14760.97  
682  0  -23945.363  18157.645  30051.297  
683  0  45004.797  -48662.965  66283.6  
684  0  6741.173  -19768.996  20886.758  
685  0  4554.8623  -4057.2527  6099.842  
686  0  5082.4673  -2783.5005  5794.769  
687  0  633.0697  -2931.9045  2999.4734  
688  4095  3388.4243  -2652.424  4303.112  
689  4095  2424.1108  -1958.6614  3116.5154  
690  4095  1068.092  103.87012  1073.1307  
691  4095  6275.0576  -8756.778  10773.0  
692  4095  11059.938  9199.471  14385.844  
693  4095  -11342.175  -16623.334  20124.12  
694  4095  5700.5864  -10038.592  11544.264  
695  4095  -6192.712  -4898.5186  7895.8955  
696  4095  -3681.6206  -8320.267  9098.416  
697  4095  -4962.526  -6264.9883  7992.293  
698  4095  -5942.5796  -3257.0012  6776.6  
699  4095  -8420.357  -6114.2847  10406.099  
700  4095  -10098.24  -341.35718  10104.009  
701  4095  -15084.209  5316.238  15993.616  
702  4095  -76475.28  49680.945  91195.75  
703  4095  23100.797  -23172.695  32720.34  
704  4095  8149.3057  -18846.123  20532.596  
705  4095  3076.633  -12720.41  13087.188  
706  4095  5866.5205  -8367.315  10219.004  
707  4095  1482.0826  -8072.758  8207.679  
708  4095  2452.84  -7196.965  7603.4683  
709  4095  3948.5195  -6747.2705  7817.702  
710  4095  -746.2949  -1645.4438  1806.7765  
711  4095  4390.54  -12818.228  13549.311  
712  4095  -1038.3928  -14280.08  14317.784  
713  4095  -2156.507  -8641.306  8906.328  
714  4095  14327.414  -9294.361  17078.055  
715  4095  6104.6885  -7310.8936  9524.515  
716  4095  6857.962  -9530.373  11741.365  
717  4095  7201.782  -11743.571  13775.962  
718  4095  7618.137  -9229.088  11967.125  
719  4095  8410.344  -14420.441  16693.8  
720  4095  9450.448  -16933.158  19391.824  
721  4095  29120.486  -21814.746  36385.242  
722  4095  -101828.164  50517.3  113670.45  
723  4095  -15821.083  3150.9587  16131.808  
724  4095  -7820.656  -1794.3606  8023.8633  
725  0  -8611.331  -5944.3633  10463.77  
726  0  -2658.078  -3403.3164  4318.326  
727  0  -3352.8794  -3577.5222  4903.1074  
728  0  -3396.096  -2728.1487  4356.1753  
729  0  2513.1133  -1793.25  3087.31  
730  0  -1197.886  9122.598  9200.908  
731  0  11936.996  19487.842  22853.18  
732  0  -18746.568  -45155.06  48891.85  
733  0  -16421.762  -20570.004  26321.082  
734  0  1491.0278  -15390.739  15462.795  
735  0  1450.0103  -13188.462  13267.933  
736  0  2869.9236  -11795.406  12139.525  
737  0  5964.4375  -15021.981  16162.748  
738  0  8771.445  -12758.558  15482.863  
739  0  14810.836  -15880.3545  21715.123  
740  0  19666.04  -26317.178  32853.418  
741  0  107084.5  -55572.066  120645.53  
742  0  -63035.203  13247.313  64412.176  
743  0  -26129.65  -4456.993  26507.045  
744  0  -16254.872  -2980.2725  16525.824  
745  0  -16595.947  -8768.445  18769.953  
746  0  -11912.617  -7591.288  14125.796  
747  0  -10065.023  -7465.713  12531.623  
748  0  -12793.436  -7255.284  14707.5205  
749  0  -5641.6855  -6846.965  8871.84  
750  0  -7844.1035  5192.5933  9407.071  
751  0  32239.387  117077.586  121435.336  
752  0  -12788.3545  -29279.41  31950.365  
753  0  -23053.682  -22956.531  32534.205  
754  0  -14850.646  -18572.72  23779.984  
755  0  -12554.85  -18266.775  22165.273  
756  0  -13512.368  -14976.166  20171.01  
757  0  -12341.331  -17235.96  21198.744  
758  0  -12937.713  -15576.392  20248.664  
759  0  -10885.969  -10829.006  15354.858  
760  0  -28895.57  -17999.723  34043.266  
761  0  145577.73  -61394.05  157994.0  
762  0  4092.7483  -22763.545  23128.545  
763  0  -118.29297  -31327.305  31327.527  
764  0  -933.98145  -26270.432  26287.03  
765  0  -5594.8027  -31744.621  32233.877  
766  0  -6916.751  -34852.152  35531.87  
767  0  -5929.5  -38964.605  39413.188  
768  0  -13688.881  -48592.848  50484.16  
769  0  -13881.401  -68371.85  69766.78  
770  4095  -29865.42  -138703.58  141882.44  
771  4095  40933.723  230163.78  233775.4  
772  4095  10087.597  43854.35  44999.598  
773  4095  -5537.6445  13381.985  14482.508  
774  4095  -9416.944  4054.4688  10252.686  
775  4095  -9346.559  -4336.912  10303.735  
776  4095  -13895.603  -5930.988  15108.421  
777  4095  -17295.295  -9860.815  19908.865  
778  4095  -24154.582  -14235.36  28037.285  
779  4095  -31756.38  -4855.7246  32125.469  
780  4095  -120585.37  -5169.44  120696.125  
781  4095  96894.43  -36353.863  103489.77  
782  4095  29622.582  -23721.516  37950.066  
783  4095  19283.395  -37144.25  41851.46  
784  4095  15319.368  -37785.387  40772.766  
785  4095  11147.151  -46082.246  47411.31  
786  4095  7028.4766  -57752.242  58178.355  
787  4095  9028.84  -72457.84  73018.21  
788  4095  2171.9392  -104317.5  104340.11  
789  4095  -4509.5493  -182192.61  182248.42  
790  4095  -52116.008  -952880.1  954304.25  
791  4095  22086.55  262164.3  263093.03  
792  4095  17690.7  109408.01  110829.03  
793  4095  12787.3545  62685.15  63976.12  
794  4095  6791.8345  43100.496  43632.348  
795  4095  8145.904  27795.234  28964.303  
796  4095  6164.131  19756.793  20696.072  
797  4095  4525.083  14354.672  15051.013  
798  4095  2260.2104  1487.9646  2706.0286  
799  4095  9948.727  8652.673  13185.063  
