n v(n)    Re(T)       Im(T)        Mod(T) 
   
0  833  868340.0  0.0  868340.0  
1  866  17473.91  -112417.92  113767.86  
2  998  -73935.875  -42269.8  85166.01  
3  1064  -54347.113  29794.117  61978.207  
4  925  -9136.657  50183.855  51008.805  
5  972  33007.84  32282.068  46169.79  
6  886  34641.44  -4740.58  34964.305  
7  783  16656.96  -25962.943  30846.86  
8  892  -8917.529  -22268.783  23987.936  
9  848  -21840.854  -8743.498  23525.977  
10  961  -18228.863  9580.719  20593.242  
11  909  -3254.3215  15700.575  16034.297  
12  763  9357.651  12713.587  15786.1  
13  916  11783.888  1385.4252  11865.051  
14  901  8441.059  -10565.299  13523.202  
15  768  -2367.9707  -8332.835  8662.761  
16  887  -8221.895  -4389.518  9320.27  
17  863  -8512.518  2299.2178  8817.56  
18  991  -2305.0183  8816.608  9112.941  
19  800  4655.8145  7022.515  8425.694  
20  1014  4271.8096  -1235.5231  4446.895  
21  1079  7614.3594  -7112.9033  10419.782  
22  773  24.481323  -6554.474  6554.52  
23  888  -5972.3984  -2717.6406  6561.6396  
24  1010  -4231.3975  1211.8921  4401.523  
25  1056  221.87268  4014.5166  4020.643  
26  953  5273.449  3103.3105  6118.807  
27  839  5343.9297  1863.0492  5659.376  
28  915  2886.6206  1002.3253  3055.689  
29  854  4833.373  -1103.5121  4957.7446  
30  871  -3050.3215  1682.6532  3483.645  
31  951  -1643.9397  2630.0354  3101.5518  
32  877  -1513.152  3897.1118  4180.5635  
33  853  2876.3533  -534.8877  2925.6646  
34  810  -1748.0608  -608.77783  1851.034  
35  973  -903.2416  -452.49835  1010.24756  
36  876  -1373.909  -358.7374  1419.9713  
37  967  3963.4814  -791.912  4041.82  
38  889  2165.3354  -759.857  2294.7898  
39  950  -883.59283  380.4549  962.0199  
40  953  918.38074  -94.62738  923.2429  
41  961  -0.2869873  -4097.097  4097.097  
42  868  -503.5122  2765.311  2810.7773  
43  840  -1004.9885  -534.0571  1138.0769  
44  1055  -1248.2017  1230.1584  1752.5116  
45  735  2345.8013  -1959.3856  3056.4646  
46  762  291.59332  1869.7708  1892.3713  
47  990  3083.0532  -3468.4111  4640.592  
48  968  1460.5693  -2701.1836  3070.7744  
49  815  -2310.6946  -1489.3923  2749.109  
50  1011  -866.48584  3677.183  3777.8928  
51  967  -3756.6758  315.72073  3769.9194  
52  974  -1172.9216  -1693.0402  2059.643  
53  1082  905.4452  1174.9886  1483.3845  
54  840  2275.6963  -2849.925  3647.0352  
55  816  -1436.4089  1933.1168  2408.3628  
56  835  -3138.1992  -2279.5945  3878.7686  
57  855  -5122.2583  131.42365  5123.944  
58  801  848.4015  695.0056  1096.7306  
59  849  3654.3992  163.63733  3658.061  
60  906  4142.6265  2470.3286  4823.264  
61  998  1676.9563  -675.1414  1807.7606  
62  955  -863.99225  706.173  1115.8687  
63  859  -2475.647  3193.462  4040.6716  
64  784  -166.75409  1089.9663  1102.6483  
65  776  -1106.159  -2427.209  2667.3828  
66  810  -753.25165  878.7593  1157.4135  
67  851  -370.46857  -458.76498  589.6713  
68  901  -435.8966  -4137.627  4160.5244  
69  809  3.142395  -3082.7664  3082.7678  
70  993  106.95288  -1996.8118  1999.6741  
71  923  944.7314  2034.3258  2242.9888  
72  862  -831.49634  -1295.2328  1539.1603  
73  827  -1633.6215  -967.66077  1898.7065  
74  783  -1298.3641  -966.8998  1618.8405  
75  816  2569.5125  1654.6658  3056.1926  
76  702  -355.06042  1196.1687  1247.7529  
77  1033  2409.3008  2018.5973  3143.1619  
78  800  183.48346  1499.499  1510.6831  
79  995  591.6079  36.01294  592.703  
80  963  -340.60175  -3344.623  3361.9211  
81  809  -1137.8662  545.75323  1261.977  
82  857  898.8572  844.3895  1233.2632  
83  996  785.0636  -1380.6637  1588.256  
84  828  -2046.7461  -3401.169  3969.524  
85  1024  -784.68286  -1765.7241  1932.229  
86  905  -1304.2167  -2182.1943  2542.234  
87  977  -227.37396  1039.335  1063.9154  
88  1018  -156.73859  793.8526  809.1779  
89  1006  -2622.599  1118.3766  2851.1038  
90  908  -128.93024  2221.5234  2225.2617  
91  807  1754.7535  1961.7852  2632.064  
92  1090  1033.4861  -4181.515  4307.3384  
93  892  3062.9746  -2184.107  3761.9324  
94  863  314.21042  -2997.3064  3013.731  
95  1018  -715.3781  -1538.7963  1696.956  
96  1000  1519.117  606.62177  1635.7587  
97  930  -761.2357  331.44513  830.26245  
98  1009  -1096.2107  -1405.0654  1782.1018  
99  881  -803.3224  2116.5896  2263.9077  
100  1021  1572.6033  1619.4547  2257.369  
101  1044  -613.5145  889.78235  1080.7926  
102  1194  -344.281  -69.09515  351.14606  
103  1274  -999.93176  -1584.9529  1874.0168  
104  1390  1296.8147  -2675.991  2973.6604  
105  1570  39.25818  1190.7166  1191.3635  
106  1587  1245.925  3063.2734  3306.9583  
107  1512  -2209.5007  594.18585  2288.0015  
108  1659  2856.5154  -3809.3203  4761.365  
109  1671  -1430.9019  2674.4883  3033.211  
110  1682  -2963.656  444.45972  2996.7983  
111  1894  116.06781  2557.7122  2560.3442  
112  1910  -620.66266  2396.2102  2475.2869  
113  1869  -3231.309  192.5899  3237.0432  
114  2207  -2502.7188  -441.89258  2541.4307  
115  2065  -2173.1763  -168.36017  2179.688  
116  2155  420.95322  -136.92438  442.66226  
117  2235  2307.9858  942.8077  2493.1274  
118  2505  -4049.5657  -869.07245  4141.771  
119  2312  54.91794  1724.0481  1724.9225  
120  2566  191.93616  1461.4312  1473.9812  
121  2494  -140.36401  271.73816  305.84912  
122  2571  -581.40857  1908.957  1995.5332  
123  2456  -2093.9072  3333.1404  3936.2764  
124  2564  -2017.0797  -1714.3088  2647.1616  
125  2366  -1555.5696  -2081.801  2598.7866  
126  2417  -335.4295  -688.05316  765.46075  
127  2249  -1817.8904  2306.1235  2936.483  
128  2260  474.07947  -1339.5249  1420.9427  
129  2208  -573.4266  -1075.8198  1219.1006  
130  2239  -1052.1638  581.49  1202.1561  
131  2186  1634.7336  -844.1158  1839.8058  
132  2348  213.95721  -426.4975  477.15594  
133  2084  -766.706  -539.6383  937.5754  
134  2186  -1135.8792  849.3172  1418.2952  
135  2253  2661.001  -2678.8286  3775.8506  
136  2299  -386.94305  313.003  497.69046  
137  2000  -69.559326  204.46796  215.97603  
138  1931  -1977.5941  -1491.4634  2476.9622  
139  2035  -1610.4833  2544.7742  3011.5664  
140  2158  -380.36063  -763.86035  853.32104  
141  1934  176.24286  -1483.3259  1493.7594  
142  1906  -1974.5881  1840.931  2699.6343  
143  2082  -72.18982  951.95386  954.68713  
144  2074  -2151.8704  33.00757  2152.1235  
145  1975  2511.3599  -228.1612  2521.703  
146  2018  -3124.384  1815.1399  3613.3792  
147  1974  -2809.6694  -458.6303  2846.8552  
148  1971  847.9226  1192.307  1463.0682  
149  2102  -1374.4293  1055.3451  1732.8616  
150  2065  76.12222  -672.9127  677.20465  
151  1924  -980.4299  -1264.2788  1599.8885  
152  1905  1820.1016  4561.4526  4911.173  
153  1787  -804.7031  1413.6064  1626.6008  
154  2031  305.7704  2506.8562  2525.4353  
155  1774  -1439.3494  -3042.475  3365.766  
156  1957  3922.7751  340.42206  3937.5186  
157  1892  -2696.6692  -2108.1174  3422.891  
158  1859  1812.9111  3350.9224  3809.8987  
159  1693  -674.00415  -427.01062  797.88446  
160  1912  -1525.4988  -870.17316  1756.2311  
161  1722  954.3744  -1150.0267  1494.4537  
162  1670  -113.94655  -1946.1361  1949.469  
163  1785  -142.13855  605.30273  621.76746  
164  1815  2731.8716  196.79108  2738.9504  
165  1910  920.7082  3108.6162  3242.098  
166  1707  -1384.1013  1983.9026  2419.0093  
167  1749  846.8823  -2444.301  2586.8547  
168  1686  -25.384644  -1137.3204  1137.6036  
169  1584  -1490.31  989.18286  1788.7166  
170  1681  -31.879578  328.96063  330.50174  
171  1608  -2022.6584  -616.43945  2114.5083  
172  1817  2300.1284  3.7788086  2300.1316  
173  1762  -884.20746  -2948.9685  3078.6748  
174  1783  -2066.8672  -1818.4033  2752.913  
175  1486  -3199.8  3884.2153  5032.4795  
176  1643  1759.0673  -2085.1738  2728.052  
177  1794  1460.3663  -245.43152  1480.8466  
178  1571  -2139.2263  -175.63214  2146.4238  
179  1419  -645.4097  3945.1782  3997.6223  
180  1565  784.4569  2820.3718  2927.434  
181  1487  -1036.7986  1045.4861  1472.4104  
182  1623  122.84347  2642.0088  2644.863  
183  1527  188.41278  -1259.1306  1273.1493  
184  1403  2241.9014  -1469.5048  2680.5906  
185  1538  -1297.6354  1705.394  2142.948  
186  1633  -3381.0938  -3466.9067  4842.6475  
187  1536  176.27133  -595.5295  621.0692  
188  1489  -1701.6199  426.56628  1754.2716  
189  1525  2683.6326  2468.7769  3646.47  
190  1600  190.7333  495.20486  530.6666  
191  1552  -1717.8308  -881.93396  1930.9972  
192  1468  -5580.2773  -213.86334  5584.374  
193  1594  -2237.7542  -2626.587  3450.5798  
194  1617  3796.8127  764.2351  3872.963  
195  1447  984.43713  -1152.3774  1515.6155  
196  1383  -2158.0938  -1569.0286  2668.1865  
197  1398  -913.12085  -852.47815  1249.2032  
198  1306  2134.256  3482.4568  4084.4282  
199  1637  1982.8828  -1750.8356  2645.2314  
200  1485  -1812.4772  -324.1065  1841.2274  
201  1500  -593.52356  -1379.8918  1502.1224  
202  1606  2565.358  -3038.065  3976.2922  
203  1301  207.81094  -419.21014  467.89157  
204  1283  810.61395  -557.99426  984.0999  
205  1462  -2925.2568  862.20514  3049.6763  
206  1361  891.6584  345.57562  956.283  
207  1296  -924.725  -1590.8306  1840.0702  
208  1255  -2829.3784  -1623.941  3262.2947  
209  1320  -970.22015  -75.59949  973.1611  
210  1391  -207.94057  -328.49298  388.77618  
211  1202  -1337.5658  -1417.6643  1949.0651  
212  1366  -1570.6526  1688.6489  2306.184  
213  1397  1396.0438  918.96277  1671.3561  
214  1470  -1962.4496  -106.120605  1965.3167  
215  1343  -2443.819  3128.52  3969.8728  
216  1222  -2097.3206  624.8766  2188.4297  
217  1382  1101.8783  2143.141  2409.8113  
218  1308  -565.1368  1600.1816  1697.0447  
219  1459  507.641  -150.40387  529.4532  
220  1222  -1661.3975  -1028.5104  1953.9895  
221  1398  -1203.3306  -148.68347  1212.4814  
222  1436  -649.56976  1914.7993  2021.9786  
223  1405  829.5161  2442.3738  2579.3965  
224  1236  478.5613  -154.01642  502.7345  
225  1385  1244.758  391.28015  1304.8075  
226  1369  -1431.8181  -158.96844  1440.6158  
227  1249  -10.476929  -1625.4302  1625.464  
228  1200  -1472.44  1785.3087  2314.1753  
229  1098  1034.4252  93.40564  1038.6337  
230  1212  2076.989  -177.78497  2084.5842  
231  1165  -784.27045  -819.57306  1134.3633  
232  1357  1812.0708  -158.05487  1818.9507  
233  1240  -3889.318  3665.8071  5344.6177  
234  1247  974.9774  -785.46704  1252.0142  
235  1168  811.539  871.1016  1190.5518  
236  1327  -563.32745  -1013.38715  1159.4358  
237  1301  563.16223  -3884.2898  3924.9023  
238  1234  3462.02  1113.9497  3636.821  
239  1270  -4531.261  -1167.3354  4679.2095  
240  1346  2532.1104  -1802.6721  3108.2488  
241  1242  -100.43918  -4396.061  4397.208  
242  1229  1594.5183  -1637.7012  2285.7283  
243  1084  -383.2555  -84.98004  392.56384  
244  1238  -643.2097  462.47522  792.2134  
245  1244  1839.2081  -2258.701  2912.802  
246  1290  -1886.6484  -904.64636  2092.326  
247  1149  -4204.2705  -4074.9775  5855.0264  
248  1197  1362.9995  3122.7134  3407.2139  
249  1302  1359.335  1389.7118  1943.9883  
250  1088  -1097.9893  2786.3835  2994.9148  
251  1340  -1174.568  1741.2483  2100.3704  
252  1204  3255.6172  -1070.9109  3427.2283  
253  1117  -156.16608  450.82715  477.10898  
254  1325  1347.3179  -110.558716  1351.8464  
255  1234  -2052.4368  -3706.1343  4236.4995  
256  1188  -2018.605  742.8082  2150.937  
257  1175  3234.468  1023.2014  3392.451  
258  1243  -372.63422  2048.5793  2082.1946  
259  1143  1543.9701  -727.12915  1706.6226  
260  1176  518.85486  611.73425  802.1403  
261  1091  -43.175995  -584.4518  586.0444  
262  1217  -651.4559  -1224.8698  1387.3358  
263  1316  -1662.7479  455.28406  1723.9531  
264  1139  -2544.3745  100.869995  2546.3733  
265  1100  -1107.4355  742.69434  1333.4198  
266  1067  -2092.3425  78.31128  2093.8076  
267  1225  -430.97653  779.3195  890.55023  
268  1119  1257.4194  -475.5835  1344.3523  
269  1110  -432.1315  2106.4204  2150.2893  
270  1103  1994.5413  1811.1416  2694.1472  
271  1166  -289.90445  -506.94965  583.98846  
272  1128  3390.608  -246.29742  3399.5417  
273  1258  1178.3713  770.93506  1408.1548  
274  1302  1576.5815  -1391.9691  2103.1375  
275  1080  -2395.9355  -847.1789  2541.3027  
276  1125  -944.35486  -1980.8899  2194.4773  
277  1014  2137.4595  2934.106  3630.1118  
278  1208  -2844.1748  -907.8797  2985.5613  
279  1057  -1580.9443  2446.93  2913.22  
280  1182  155.49811  512.54987  535.61835  
281  1136  997.57623  -4650.873  4756.6562  
282  1111  -1617.6523  1027.0338  1916.1414  
283  1252  -2232.73  -2145.7498  3096.6636  
284  1016  -2153.2224  2248.8713  3113.485  
285  1004  2922.678  -2286.625  3710.8894  
286  1199  2401.8445  -791.1081  2528.7761  
287  1259  1126.1716  221.11511  1147.6735  
288  989  -1935.3525  1237.9341  2297.405  
289  1274  2085.918  -904.66846  2273.649  
290  1003  2510.8647  -1251.949  2805.676  
291  1164  1261.2092  487.56635  1352.1722  
292  1062  -2303.44  1279.7505  2635.0706  
293  1190  -658.1882  -928.84174  1138.4017  
294  1055  1455.7474  -3296.819  3603.9167  
295  920  742.5767  -117.46741  751.8103  
296  1080  2290.3171  747.68744  2409.2715  
297  1174  -328.00842  -653.94635  731.59784  
298  1179  1676.6008  994.40393  1949.3152  
299  1194  -1465.8898  1690.5746  2237.6047  
300  1165  361.88385  -298.7964  469.2965  
301  1153  1973.2476  1478.5237  2465.7124  
302  1267  5722.587  1380.8792  5886.835  
303  1247  162.90997  -188.96484  249.49423  
304  1016  105.88129  636.99  645.7299  
305  1057  2354.7446  224.69452  2365.4407  
306  1069  1873.036  -1408.4756  2343.516  
307  992  361.94098  2266.3064  2295.0264  
308  1166  1512.3931  1285.4104  1984.8457  
309  995  -89.52539  2010.4376  2012.4299  
310  1103  3901.1519  2229.285  4493.183  
311  931  -1854.814  1278.1245  2252.54  
312  1183  -165.09741  -2362.915  2368.6758  
313  914  1198.6182  -1742.5933  2115.0217  
314  1158  -742.8419  -1622.4324  1784.4049  
315  1128  938.00555  221.16364  963.726  
316  922  -1240.7091  2281.0693  2596.6587  
317  1143  -85.59442  -1644.2816  1646.5079  
318  968  431.96918  237.08722  492.75522  
319  1122  -328.1714  965.18054  1019.4459  
320  1003  -1223.1716  1101.6381  1646.1334  
321  1113  492.18665  -2663.6646  2708.7556  
322  992  2803.5037  -3936.084  4832.431  
323  974  -2538.1943  -230.19806  2548.6116  
324  1024  -865.08545  -571.79004  1036.9747  
325  901  388.79407  -3820.0166  3839.751  
326  1160  1358.9597  343.9395  1401.8081  
327  863  -3882.9712  2121.4675  4424.7134  
328  1069  678.2424  -744.93304  1007.4413  
329  944  766.6076  580.8473  961.806  
330  1009  -863.0997  -321.94403  921.1889  
331  1048  454.4228  -948.86694  1052.0687  
332  947  869.2482  -1206.8503  1487.3064  
333  1108  -529.484  1772.6287  1850.0177  
334  1005  1339.1345  -489.67203  1425.8541  
335  1018  -3536.3403  1806.8285  3971.1877  
336  972  54.89319  -1458.4849  1459.5175  
337  1088  -1725.0061  2160.1655  2764.4097  
338  1168  418.81104  2785.6392  2816.9465  
339  927  -1821.4202  405.766  1866.0701  
340  1022  -2235.5544  321.13495  2258.502  
341  1008  2038.4463  -1152.9338  2341.905  
342  1141  -3580.6987  -1282.8008  3803.5486  
343  1177  3330.2988  1737.665  3756.3772  
344  1014  490.41583  -61.58072  494.267  
345  893  777.7773  -1791.0957  1952.6805  
346  1141  92.44891  674.06445  680.3747  
347  896  403.70544  -1898.0615  1940.5194  
348  959  2408.6465  1696.4359  2946.0945  
349  1030  1036.5669  -445.932  1128.4176  
350  953  -3411.7283  440.98935  3440.1108  
351  890  3899.5532  381.78687  3918.198  
352  910  -3195.065  -2510.2803  4063.2434  
353  991  955.1106  4258.986  4364.7676  
354  930  1919.6803  -4021.4998  4456.1904  
355  940  -1761.2644  -549.7832  1845.0782  
356  1033  -1724.1562  -678.33875  1852.7974  
357  1045  -1438.219  -425.33038  1499.7932  
358  1060  1303.2705  1657.689  2108.66  
359  995  -826.56573  -971.3777  1275.455  
360  1085  958.6215  -1514.0339  1791.9972  
361  866  -2484.9673  1476.4484  2890.495  
362  1189  -719.70807  431.19843  838.9945  
363  1004  2536.0598  609.6192  2608.3013  
364  1015  -793.1421  828.6387  1147.0469  
365  871  330.37427  167.29388  370.31662  
366  868  3115.178  -4176.0894  5209.9956  
367  895  -530.73114  -1837.7126  1912.8156  
368  995  1381.7861  -16.94458  1381.89  
369  1048  2285.9424  -1955.0934  3007.9766  
370  890  -1225.4321  -1880.3328  2244.401  
371  985  -1711.2715  400.24332  1757.4541  
372  858  831.5348  -96.90419  837.16223  
373  1057  34.53296  4392.933  4393.069  
374  1094  3152.6929  -3134.7856  4445.9365  
375  828  636.1575  2473.2324  2553.7375  
376  1048  294.75433  1007.128  1049.3745  
377  958  835.4186  1490.0192  1708.2393  
378  868  -3792.8276  325.50906  3806.7698  
379  965  -448.23743  2592.5452  2631.0088  
380  996  -407.42072  -992.0467  1072.4497  
381  816  211.65887  1588.5447  1602.5835  
382  870  -1212.3031  2420.3027  2706.9436  
383  1089  -1135.2863  -1308.4332  1732.3026  
384  962  724.0443  1668.9688  1819.2573  
385  969  683.6128  592.8367  904.8656  
386  958  993.0384  2190.1826  2404.792  
387  1020  -241.05011  -737.0723  775.4874  
388  878  -348.6526  -2131.714  2160.0378  
389  879  -981.508  507.9667  1105.1643  
390  1053  -444.81042  1975.1462  2024.6133  
391  849  -2581.8623  -520.3807  2633.7822  
392  1022  -1805.9335  -450.28735  1861.2239  
393  1007  4369.0786  1391.2104  4585.228  
394  1077  1142.8668  1935.3015  2247.5623  
395  919  458.83905  -2495.4731  2537.3057  
396  994  1966.0481  -1991.6602  2798.5808  
397  830  -2931.7815  1921.5322  3505.3713  
398  865  -489.56165  3724.3218  3756.3604  
399  876  -3749.4858  3721.9192  5283.117  
400  1009  1736.0037  -3.127791  1736.0065  
401  867  -3741.6953  -3735.9438  5287.4907  
402  891  -479.5982  -3726.6533  3757.3872  
403  1011  -2925.8208  -1927.8728  3503.872  
404  835  1965.6733  1996.9229  2802.066  
405  929  456.5918  2491.122  2532.62  
406  822  1149.5116  -1938.3666  2253.5842  
407  801  4368.4263  -1383.988  4582.4194  
408  881  -1811.0823  446.47382  1865.3037  
409  982  -2583.0574  512.0227  2633.316  
410  1113  -438.11017  -1977.2858  2025.2406  
411  873  -982.89  -512.64056  1108.5455  
412  877  -350.53668  2129.8918  2158.5447  
413  1007  -239.94794  732.2545  770.5658  
414  1036  998.79083  -2191.6965  2408.5508  
415  1149  683.91876  -593.7694  905.708  
416  1111  726.2147  -1668.3992  1819.5999  
417  851  -1139.0276  1302.4425  1730.2429  
418  892  -1207.5553  -2425.5884  2709.5515  
419  936  215.31696  -1589.8898  1604.4037  
420  1010  -410.6236  988.85016  1070.7177  
421  776  -442.62762  -2594.6633  2632.1467  
422  906  -3790.651  -334.65317  3805.3945  
423  751  842.6443  -1489.5931  1711.4137  
424  1115  300.9311  -1008.4153  1052.3596  
425  781  645.0  -2469.855  2552.6865  
426  862  3148.8591  3140.9634  4447.5796  
427  992  43.240906  -4393.8765  4394.0894  
428  823  830.6189  101.21338  836.76276  
429  874  -1711.9736  -400.8719  1758.281  
430  972  -1226.3732  1879.5089  2244.2249  
431  996  2284.664  1959.0017  3009.5479  
432  1059  1380.5201  19.355316  1380.6558  
433  845  -534.4955  1838.5188  1914.6375  
434  862  3105.5762  4176.6196  5204.686  
435  975  326.5221  -173.12785  369.58075  
436  1020  -791.10724  -832.5136  1148.4467  
437  954  2534.9683  -605.9185  2606.377  
438  884  -723.6911  -434.4651  844.0905  
439  971  -2482.2205  -1481.42  2890.6787  
440  812  954.6732  1515.828  1791.406  
441  988  -831.002  967.0294  1275.0334  
442  861  1305.8354  -1657.1213  2109.8003  
443  798  -1440.8289  421.89508  1501.3271  
444  954  -1724.793  676.08765  1852.5673  
445  1005  -1759.1714  547.2548  1842.3278  
446  979  1914.6398  4021.2922  4453.834  
447  1055  960.4068  -4259.856  4366.7783  
448  1026  -3196.6978  2501.393  4059.0447  
449  837  3900.8047  -376.43115  3918.9255  
450  988  -3409.7542  -450.2874  3439.358  
451  935  1038.9851  445.0362  1130.2864  
452  1032  2412.8604  -1691.9291  2946.9507  
453  886  400.06372  1898.793  1940.4808  
454  859  94.0163  -676.4104  682.91296  
455  853  774.3875  1790.8784  1951.1334  
456  999  486.76733  58.583527  490.28  
457  903  3331.499  -1732.8695  3755.226  
458  980  -3579.912  1269.7467  3798.4243  
459  927  2035.01  1152.8379  2338.8674  
460  1103  -2237.5718  -330.48245  2261.8457  
461  949  -1819.0449  -414.95178  1865.7732  
462  1127  424.99664  -2786.9878  2819.206  
463  818  -1719.39  -2163.0732  2763.1843  
464  1114  48.73352  1457.0693  1457.884  
465  1054  -3530.6387  -1814.0776  3969.419  
466  951  1343.4631  491.41003  1430.5164  
467  1026  -520.5277  -1772.3516  1847.2084  
468  804  867.197  1210.2618  1488.8802  
469  993  451.23248  948.7306  1050.5715  
470  1119  -863.079  320.28363  920.5905  
471  971  769.3148  -579.26733  963.01404  
472  784  675.72754  745.3549  1006.06244  
473  992  -3876.2432  -2129.0637  4422.4624  
474  958  1363.7308  -341.1295  1405.7493  
475  925  381.94147  3821.4924  3840.5315  
476  1059  -867.56165  570.72  1038.4529  
477  918  -2533.6099  225.79504  2543.6514  
478  909  2797.3713  3941.095  4832.9614  
479  982  490.65045  2658.8787  2703.7703  
480  990  -1221.3181  -1109.4043  1649.9685  
481  828  -323.9872  -968.3301  1021.09296  
482  960  432.97125  -238.10535  494.12375  
483  1119  -87.12079  1640.3748  1642.6866  
484  822  -1232.6631  -2287.9106  2598.8445  
485  763  939.3414  -219.0484  964.54364  
486  868  -742.23755  1621.3008  1783.1244  
487  994  1197.1865  1744.342  2115.6523  
488  850  -167.68713  2356.9438  2362.9016  
489  828  -1845.7566  -1289.2601  2251.446  
490  1065  3908.4353  -2225.3079  4497.5396  
491  1030  -83.15076  -2012.7424  2014.4592  
492  933  1516.5841  -1285.8074  1988.2977  
493  1020  368.60443  -2263.4456  2293.263  
494  855  1873.8135  1410.1736  2345.1582  
495  832  2354.9233  -222.91144  2365.45  
496  991  106.96893  -639.51654  648.40094  
497  1050  167.24866  186.56342  250.55542  
498  999  5727.611  -1367.1964  5888.5273  
499  923  1972.1625  -1474.4729  2462.4165  
500  964  358.292  297.93408  465.98056  
501  952  -1464.3259  -1694.3932  2239.4685  
502  773  1683.3947  -993.784  1954.8463  
503  975  -330.58447  653.1958  732.0867  
504  934  2291.7236  -742.727  2409.0747  
505  965  741.2387  120.96741  751.04456  
506  888  1448.5765  3299.0718  3603.0889  
507  981  -662.349  923.22327  1136.2427  
508  940  -2298.7195  -1287.9924  2634.964  
509  831  1263.481  -483.617  1352.8745  
510  936  2506.7896  1257.981  2804.73  
511  954  2087.3481  901.9213  2273.8699  
512  846  -1934.0765  -1244.1816  2299.7043  
513  1030  1127.8696  -217.47717  1148.6454  
514  896  2399.4287  796.1683  2528.0708  
515  817  2915.4785  2287.5408  3705.787  
516  900  -2152.6248  -2253.2522  3116.238  
517  911  -2237.7944  2140.9058  3096.9666  
518  1007  -1613.9766  -1030.5952  1914.9535  
519  922  987.861  4648.165  4751.9795  
520  1000  151.1629  -511.90198  533.7545  
521  823  -1577.1941  -2453.9226  2917.0664  
522  858  -2843.0737  901.09827  2982.4563  
523  954  2144.0447  -2935.0828  3634.7817  
524  935  -950.14246  1978.6088  2194.9177  
525  976  -2393.9304  837.60693  2536.235  
526  872  1578.0997  1392.842  2104.8535  
527  1090  1183.1663  -771.10986  1412.2651  
528  838  3389.1624  251.50745  3398.4817  
529  992  -289.7486  503.70795  581.0989  
530  783  1994.2755  -1806.8623  2691.0752  
531  1015  -429.9203  -2108.8625  2152.239  
532  988  1256.2828  477.7552  1344.0598  
533  986  -433.65228  -781.5181  893.77  
534  1029  -2095.579  -83.92993  2097.2593  
535  947  -1106.8801  -745.2362  1334.3765  
536  847  -2544.0713  -106.53015  2546.3005  
537  866  -1659.376  -459.08905  1721.7118  
538  834  -651.08716  1221.9368  1384.5736  
539  918  -41.631714  581.6033  583.0914  
540  987  530.2562  -610.58417  808.6932  
541  964  1544.1814  728.297  1707.3115  
542  1009  -366.69925  -2051.6484  2084.1616  
543  840  3236.5312  -1015.71936  3392.1707  
544  971  -2018.6936  -744.7753  2151.7002  
545  885  -2058.017  3699.184  4233.131  
546  830  1349.0514  108.85785  1353.4363  
547  989  -156.7015  -451.9661  478.36044  
548  899  3252.7803  1072.52  3425.037  
549  869  -1171.4744  -1747.8883  2104.1545  
550  815  -1092.0437  -2790.1892  2996.2837  
551  992  1361.5046  -1385.573  1942.5518  
552  1053  1365.1082  -3115.6816  3401.616  
553  837  -4215.6377  4070.1533  5859.8423  
554  832  -1884.3984  900.6861  2088.5864  
555  765  1837.2465  2262.177  2914.2615  
556  975  -640.1214  -464.38562  790.8283  
557  1013  -378.05267  86.56738  387.83725  
558  937  1595.0505  1641.1941  2288.603  
559  814  -108.62811  4395.105  4396.4473  
560  761  2527.6924  1803.2161  3104.9666  
561  894  -4531.5674  1153.6405  4676.1084  
562  958  3466.2686  -1105.2732  3638.2202  
563  824  553.05164  3879.9875  3919.205  
564  980  -566.3889  1008.3627  1156.543  
565  945  813.4737  -874.1401  1194.0939  
566  897  971.4258  782.3354  1247.2837  
567  840  -3880.0862  -3677.6208  5346.0234  
568  966  1815.2577  161.27496  1822.4077  
569  1038  -780.3417  814.1967  1127.7631  
570  909  2080.6287  179.29474  2088.3396  
571  995  1033.5596  -94.38794  1037.8606  
572  1043  -1470.2106  -1789.8325  2316.2512  
573  820  -14.031754  1623.2805  1623.3412  
574  1034  -1433.3464  153.37097  1441.5286  
575  886  1246.5245  -390.92078  1306.3853  
576  862  478.48544  149.48334  501.2919  
577  932  833.1321  -2444.085  2582.1814  
578  1033  -650.59546  -1917.6035  2024.9636  
579  988  -1204.1965  145.77673  1212.988  
580  888  -1661.8678  1023.67926  1951.8513  
581  922  510.09317  148.25012  531.1997  
582  1057  -563.6206  -1602.4844  1698.7126  
583  890  1107.2429  -2142.137  2411.3767  
584  1061  -2097.1416  -630.7274  2189.936  
585  991  -2438.6477  -3132.0974  3969.5134  
586  1118  -1960.5911  103.594604  1963.326  
587  844  1397.7913  -916.1647  1671.2804  
588  993  -1568.3058  -1690.9888  2306.3013  
589  833  -1338.7633  1416.6948  1949.1823  
590  930  -208.17465  329.53784  389.7844  
591  1069  -971.1445  73.23108  973.9016  
592  810  -2830.3303  1618.4465  3260.3894  
593  880  -928.6393  1586.0564  1837.919  
594  1047  894.2417  -345.64996  958.719  
595  860  -2920.8574  -869.8517  3047.6301  
596  925  814.52997  560.7122  988.86664  
597  716  209.38785  420.3553  469.6188  
598  867  2560.035  3040.3503  3974.608  
599  779  -604.97064  1387.5312  1513.6818  
600  835  -1808.9379  316.70398  1836.4525  
601  1058  1982.6157  1751.5098  2645.4775  
602  868  2140.487  -3478.357  4084.1953  
603  805  -914.0865  848.4304  1247.1521  
604  1035  -2159.0122  1562.7874  2665.2651  
605  872  985.00507  1151.2924  1515.1597  
606  1089  3796.8962  -757.67847  3871.7563  
607  1037  -2251.067  2619.6152  3453.9377  
608  868  -5580.5312  198.35223  5584.055  
609  1053  -1714.0494  874.2227  1924.1183  
610  996  196.79163  -499.70334  537.0571  
611  906  2689.6057  -2465.2095  3648.4565  
612  813  -1699.0712  -431.18365  1752.9296  
613  898  176.85007  596.1397  621.8187  
614  858  -3387.7405  3457.4736  4840.5483  
615  1059  -1294.1443  -1710.8201  2145.1606  
616  893  2243.6895  1471.5608  2683.2134  
617  923  189.0185  1255.2312  1269.383  
618  889  131.33049  -2648.3306  2651.585  
619  964  -1034.3667  -1051.6699  1475.1013  
620  793  793.415  -2821.4214  2930.8577  
621  1017  -635.78625  -3945.613  3996.5093  
622  917  -2136.6938  174.21057  2143.784  
623  1022  1464.0985  248.35901  1485.014  
624  927  1754.1127  2086.645  2725.9858  
625  851  -3191.082  -3891.1013  5032.263  
626  900  -2066.9277  1817.0398  2752.058  
627  989  -881.92346  2933.9402  3063.6243  
628  747  2301.7466  -2.4136963  2301.7478  
629  995  -2021.0336  610.65155  2111.2727  
630  952  -27.898102  -332.97278  334.13947  
631  875  -1485.8296  -993.33484  1787.2894  
632  944  -24.363083  1133.8704  1134.1321  
633  792  845.44775  2442.7883  2584.9558  
634  931  -1376.5754  -1992.2864  2421.6038  
635  1046  931.6845  -3108.4905  3245.1116  
636  811  2734.2153  -191.47821  2740.9119  
637  788  -139.86339  -604.6667  620.6316  
638  996  -115.64496  1944.9403  1948.3754  
639  988  952.415  1150.0082  1493.1888  
640  829  -1524.2234  865.28534  1752.7053  
641  1022  -672.5991  421.54553  793.7822  
642  941  1822.097  -3347.6646  3811.4165  
643  922  -2697.974  2100.1003  3418.989  
644  782  3926.661  -334.26392  3940.8625  
645  739  -1445.3536  3033.3293  3360.0793  
646  909  313.33652  -2512.2256  2531.6907  
647  967  -799.6952  -1420.3632  1630.0135  
648  1109  1831.4158  -4558.949  4913.054  
649  913  -983.38196  1263.8296  1601.3448  
650  828  76.61264  671.28217  675.6399  
651  1053  -1369.8049  -1061.6042  1733.0231  
652  1090  850.84717  -1191.7498  1464.3116  
653  1036  -2810.136  450.55377  2846.026  
654  995  -3116.0327  -1821.4435  3609.3374  
655  1022  2514.4153  229.02643  2524.8242  
656  841  -2149.8042  -38.558105  2150.15  
657  904  -68.32245  -953.71356  956.15765  
658  764  -1967.5889  -1844.679  2697.081  
659  791  177.2261  1484.3171  1494.86  
660  849  -379.93872  761.56006  851.07416  
661  927  -1600.8845  -2548.1118  3009.2698  
662  1065  -1977.4602  1487.2725  2474.3337  
663  994  -63.23764  -205.21942  214.74173  
664  948  -382.29672  -312.64203  493.8581  
665  1037  2659.5845  2682.6484  3777.5642  
666  783  -1133.8325  -855.4384  1420.3348  
667  958  -764.2159  538.2282  934.7275  
668  1001  220.32431  423.6397  477.5075  
669  913  1636.3578  841.36694  1839.9905  
670  897  -1049.9011  -588.3197  1203.5001  
671  865  -572.7459  1072.2953  1215.6707  
672  945  471.77063  1335.4602  1416.341  
673  924  -1812.8623  -2313.3364  2939.0466  
674  863  -334.2055  686.9854  763.96484  
675  842  -1559.5135  2075.3442  2595.9846  
676  824  -2018.5912  1699.5731  2638.7988  
677  892  -2078.5166  -3343.0535  3936.5261  
678  1075  -573.0483  -1911.9248  1995.956  
679  882  -135.39548  -273.81818  305.4641  
680  837  200.23953  -1462.8533  1476.4944  
681  1045  56.804962  -1726.342  1727.2764  
682  1014  -4046.4297  861.4787  4137.117  
683  1008  2314.4868  -939.08044  2497.7432  
684  913  423.02396  138.55298  445.13614  
685  920  -2170.8672  161.81842  2176.89  
686  880  -2501.731  430.0993  2538.4333  
687  902  -3225.019  -202.35071  3231.361  
688  865  -607.6698  -2399.2864  2475.043  
689  955  126.78516  -2558.0337  2561.1738  
690  835  -2958.5662  -450.67896  2992.6956  
691  939  -1415.8567  -2673.4438  3025.2192  
692  883  2855.2625  3816.749  4766.56  
693  1034  -2200.1013  -600.6155  2280.6106  
694  997  1260.0433  -3059.5674  3308.8762  
695  890  48.90857  -1187.1318  1188.1389  
696  867  1298.2498  2683.2754  2980.842  
697  980  -999.2461  1580.312  1869.7269  
698  986  -340.29913  64.13153  346.2894  
699  926  -604.77386  -893.9298  1079.2877  
700  808  1581.8689  -1617.5697  2262.4856  
701  874  -794.1573  -2116.1963  2260.3037  
702  860  -1094.2744  1405.1599  1780.986  
703  819  -753.4342  -331.1679  823.00385  
704  818  1527.0289  -601.7903  1641.3314  
705  903  -709.8492  1538.6404  1694.4911  
706  1040  315.95734  2998.8428  3015.4414  
707  973  3064.0671  2189.2126  3765.788  
708  836  1028.0066  4177.9614  4302.576  
709  955  1758.1592  -1964.8579  2636.6248  
710  931  -123.356445  -2223.044  2226.4639  
711  978  -2614.9097  -1126.6729  2847.3047  
712  756  -150.54584  -793.8234  807.9726  
713  949  -218.55756  -1041.0712  1063.7653  
714  943  -1304.8423  2182.9404  2543.1953  
715  839  -797.3019  1765.1536  1936.8679  
716  956  -2044.9609  3391.9392  3960.6965  
717  1041  791.2179  1376.2749  1587.5007  
718  903  906.88025  -846.9119  1240.8431  
719  1077  -1129.7802  -548.241  1255.7753  
720  833  -338.6679  3339.6016  3356.7297  
721  915  599.5307  -38.65799  600.77576  
722  810  194.34778  -1503.5803  1516.0886  
723  867  2419.7876  -2018.0023  3150.8262  
724  851  -342.32935  -1193.0303  1241.1731  
725  873  2578.6982  -1645.8041  3059.143  
726  844  -1296.7859  965.66  1616.8342  
727  915  -1630.5444  964.972  1894.689  
728  768  -827.50574  1293.1528  1535.2557  
729  782  959.0902  -2025.9868  2241.5344  
730  749  109.062256  1999.2377  2002.2102  
731  1006  3.5318604  3081.7258  3081.7278  
732  1032  -435.9325  4129.563  4152.509  
733  1114  -363.9099  448.81775  577.8129  
734  906  -745.0779  -883.8165  1155.9727  
735  1046  -1104.3789  2419.7805  2659.8855  
736  935  -157.60638  -1097.234  1108.4955  
737  935  -2458.4214  -3201.1711  4036.2522  
738  906  -851.655  -708.0654  1107.5527  
739  894  1687.7723  678.6491  1819.1041  
740  960  4156.086  -2462.4443  4830.8057  
741  999  3659.2585  -155.73874  3662.5713  
742  940  850.03217  -691.13916  1095.5492  
743  830  -5118.3496  -141.2219  5120.2974  
744  1018  -3133.6785  2272.9094  3871.183  
745  994  -1419.3503  -1937.6925  2401.9175  
746  946  2282.3225  2852.433  3653.1316  
747  1106  914.7952  -1178.5696  1491.9371  
748  861  -1170.1821  1688.2695  2054.1616  
749  812  -3745.3318  -325.4695  3759.4468  
750  836  -846.4617  -3679.121  3775.239  
751  860  -2298.211  1488.7607  2738.2808  
752  781  1473.3376  2700.0344  3075.8591  
753  833  3093.3682  3463.765  4643.985  
754  808  305.3346  -1873.561  1898.2782  
755  901  2357.542  1957.9448  3064.564  
756  888  -1240.284  -1233.9836  1749.5771  
757  912  -993.2244  529.3085  1125.4609  
758  914  -484.72815  -2764.2917  2806.4695  
759  1021  4.7025146  4095.141  4095.1438  
760  859  930.05426  92.06018  934.59937  
761  1025  -867.6771  -384.9636  949.24207  
762  788  2179.913  763.73474  2309.8293  
763  944  3972.698  798.5302  4052.1575  
764  966  -1365.8613  352.01648  1410.4938  
765  1012  -893.6182  447.03168  999.1951  
766  970  -1734.4785  599.4792  1835.1542  
767  932  2890.56  536.32825  2939.8955  
768  1113  -1492.1963  -3905.648  4180.997  
769  944  -1622.4305  -2634.1697  3093.7244  
770  1019  -3024.9573  -1689.1316  3464.6113  
771  977  4853.0654  1112.7546  4979.0024  
772  915  2907.1274  -998.6725  3073.88  
773  920  5364.4834  -1855.5101  5676.3193  
774  913  5290.792  -3095.5457  6129.8354  
775  861  234.88159  -4005.7866  4012.6667  
776  1060  -4211.564  -1217.022  4383.8813  
777  943  -5955.3667  2712.5674  6544.0366  
778  939  43.40912  6555.361  6555.5044  
779  813  7626.233  7121.104  10434.058  
780  789  4291.7275  1234.8796  4465.854  
781  1021  4686.57  -7027.1484  8446.582  
782  815  -2272.0361  -8819.288  9107.249  
783  907  -8482.901  -2306.0078  8790.75  
784  1011  -8194.307  4381.7847  9292.293  
785  924  -2337.0945  8329.691  8651.345  
786  775  8465.758  10568.934  13541.471  
787  923  11821.813  -1382.8885  11902.423  
788  736  9403.867  -12707.28  15808.469  
789  993  -3204.622  -15704.24  16027.875  
790  918  -18175.9  -9595.154  20553.11  
791  991  -21792.338  8727.991  23475.176  
792  959  -8865.957  22258.95  23959.676  
793  908  16713.293  25971.174  30884.236  
794  936  34713.312  4755.653  35037.555  
795  937  33116.44  -32257.068  46230.047  
796  827  -8994.644  -50185.418  50985.094  
797  1023  -54169.63  -29821.236  61835.71  
798  1025  -73725.336  42209.81  84953.48  
799  872  17829.965  112412.59  113817.836  
