n v(n)    Re(T)       Im(T)        Mod(T) 
   
0  552  442793.0  0.0  442793.0  
1  526  -63.32422  -6.3353906  63.64035  
2  511  -60.544006  -10.770347  61.49453  
3  513  -52.096924  -5.8652115  52.426044  
4  532  -48.318787  -13.247435  50.101894  
5  560  -72.121765  -27.811256  77.29822  
6  585  -54.089783  22.127748  58.440926  
7  597  -73.10193  -4.1106834  73.217415  
8  592  -70.42328  -0.87183  70.42867  
9  571  -67.107025  -9.854332  67.8267  
10  542  -77.29529  -3.2973137  77.365585  
11  519  -64.19672  22.966331  68.18116  
12  510  -71.06546  -10.064602  71.77462  
13  519  -61.881958  3.1432953  61.96174  
14  543  -64.53024  14.734707  66.19112  
15  571  -55.0542  11.1509285  56.17213  
16  592  -54.90158  -1.8652878  54.933258  
17  598  -95.262665  14.79792  96.40516  
18  584  -74.555786  -13.110565  75.69975  
19  559  -75.93448  41.46376  86.51756  
20  531  -42.66269  9.673164  43.745575  
21  513  -68.49643  13.337822  69.782936  
22  511  -52.013153  2.2536087  52.061954  
23  527  -74.931  13.910767  76.21131  
24  554  -70.87668  22.22725  74.28024  
25  581  -70.55472  13.565842  71.84706  
26  596  -55.958893  32.11051  64.5173  
27  595  -79.73984  14.205444  80.995285  
28  577  -70.12039  62.314148  93.8079  
29  547  -64.97159  32.44139  72.6206  
30  523  -67.1835  31.289497  74.11246  
31  510  -82.737885  20.607155  85.26554  
32  516  -88.10138  3.0609894  88.15454  
33  537  -94.322174  47.4796  105.59823  
34  564  -106.01633  24.158829  108.73413  
35  589  -74.408325  54.317368  92.12478  
36  598  -70.486725  24.53862  74.63593  
37  589  -86.88098  59.913696  105.536514  
38  566  -108.05084  30.626648  112.3075  
39  537  -96.78323  36.367355  103.39042  
40  515  -89.64197  24.351242  92.89061  
41  510  -88.289825  49.866516  101.399025  
42  522  -114.08942  54.095383  126.26443  
43  548  -99.92404  40.57869  107.849174  
44  575  -114.81  47.77745  124.354416  
45  595  -101.09268  30.688965  105.6482  
46  596  -88.94043  64.23256  109.70972  
47  582  -128.32477  68.37729  145.40529  
48  553  -110.81213  77.36377  135.14615  
49  527  -113.97931  68.85896  133.1647  
50  512  -111.82266  70.69322  132.29453  
51  513  -97.56906  56.194534  112.59461  
52  531  -119.2637  31.184357  123.273254  
53  559  -121.50055  53.83644  132.89374  
54  585  -129.83768  60.631927  143.29707  
55  598  -131.64374  82.085846  155.13916  
56  592  -135.7554  88.50607  162.05818  
57  571  -128.2468  99.51283  162.32697  
58  541  -150.849  103.682236  183.04488  
59  518  -135.86746  119.25557  180.78123  
60  510  -147.17969  97.296295  176.43251  
61  519  -155.74057  112.67851  192.2279  
62  542  -171.93182  93.1505  195.5443  
63  571  -172.0886  100.86539  199.47008  
64  592  -196.04303  123.001434  231.43513  
65  598  -205.88385  137.68703  247.681  
66  586  -189.32822  121.539505  224.98227  
67  559  -217.42041  159.29651  269.5311  
68  531  -238.19894  160.7868  287.38672  
69  514  -254.37598  155.45062  298.11414  
70  510  -258.9535  185.0362  318.26926  
71  526  -293.548  202.13275  356.40997  
72  553  -326.83377  217.62552  392.65912  
73  580  -358.9238  245.59079  434.9036  
74  595  -390.8669  287.41266  485.16284  
75  595  -437.48166  318.68063  541.2463  
76  576  -502.12576  356.81668  615.99384  
77  548  -580.29346  415.3267  713.6083  
78  523  -689.5893  460.68933  829.3178  
79  511  -833.19257  574.028  1011.7895  
80  516  -1104.1937  818.9418  1374.7397  
81  536  -1525.5465  1126.0839  1896.1427  
82  565  -2762.7632  2027.9076  3427.1372  
83  589  -12282.283  9061.843  15263.403  
84  598  5040.495  -3720.692  6264.993  
85  589  2139.7725  -1547.7056  2640.8367  
86  566  1357.6646  -1017.8972  1696.87  
87  536  960.176  -746.2256  1216.0553  
88  514  767.3314  -594.23  970.5188  
89  509  633.7452  -511.2159  814.23254  
90  522  519.8003  -427.02057  672.71014  
91  547  470.8452  -330.6405  575.342  
92  575  439.80176  -315.22528  541.1031  
93  595  378.05447  -313.53  491.1479  
94  596  332.33466  -261.49072  422.87555  
95  581  290.5512  -253.7944  385.787  
96  554  286.97168  -230.41684  368.02808  
97  528  261.32944  -185.22925  320.31696  
98  510  236.54536  -189.7402  303.2409  
99  512  229.062  -164.08408  281.7676  
100  529  226.41037  -196.70795  299.92612  
101  558  232.84305  -163.73218  284.64734  
102  584  196.52621  -156.07425  250.96161  
103  598  200.7179  -144.59967  247.37973  
104  592  185.63693  -123.99008  223.23666  
105  573  166.93013  -132.21088  212.94455  
106  542  181.56833  -120.70892  218.03143  
107  519  154.69444  -127.56647  200.50829  
108  510  133.85207  -125.93146  183.78006  
109  519  130.28784  -103.529724  166.41312  
110  542  130.13377  -118.36948  175.91513  
111  570  140.1217  -122.71115  186.2582  
112  593  124.79355  -100.13672  160.00247  
113  598  132.37872  -82.43527  155.94775  
114  585  124.03305  -88.14679  152.16457  
115  561  112.25235  -103.67688  152.80537  
116  532  107.8096  -112.92334  156.12364  
117  512  111.565125  -94.670685  146.31923  
118  510  93.265366  -78.1272  121.66465  
119  526  122.62898  -95.05429  155.15536  
120  553  86.08331  -93.3822  127.00619  
121  580  96.382355  -81.61063  126.29273  
122  596  109.793106  -56.252106  123.36461  
123  595  112.924774  -79.88864  138.32642  
124  575  62.329758  -36.97592  72.47218  
125  548  78.443695  -88.60803  118.341866  
126  523  87.4794  -91.10806  126.30647  
127  510  91.52074  -91.97717  129.75302  
128  515  71.05661  -69.87259  99.65551  
129  537  76.0141  -63.86966  99.28483  
130  564  100.827576  -59.276398  116.96107  
131  588  87.188705  -64.258514  108.30987  
132  597  94.16199  -76.53909  121.34543  
133  589  96.17731  -99.4025  138.3146  
134  566  68.76422  -59.540985  90.95959  
135  537  88.9126  -52.306976  103.1575  
136  515  83.40906  -69.92038  108.839005  
137  510  75.887924  -38.228333  84.97283  
138  522  52.1438  -34.751312  62.662823  
139  547  68.35388  -26.906616  73.45896  
140  574  74.63066  -51.373566  90.60342  
141  593  75.89911  -45.661682  88.57575  
142  597  48.000763  -65.09561  80.879616  
143  581  48.72818  -57.18698  75.13179  
144  553  88.9933  -39.814087  97.49343  
145  528  76.9467  -38.221313  85.91661  
146  511  67.47162  -57.782806  88.83283  
147  513  64.86348  -41.17456  76.828476  
148  531  49.23178  -47.939056  68.71624  
149  557  71.411606  -44.831757  84.31787  
150  584  75.3273  -56.37448  94.08658  
151  596  66.72481  -48.625244  82.56279  
152  592  36.493805  -30.690094  47.683117  
153  572  46.552124  -50.165314  68.43726  
154  543  51.238968  -65.00812  82.77371  
155  520  77.52319  -43.744843  89.0138  
156  510  52.234314  -42.488525  67.33274  
157  519  47.815857  -45.38022  65.92208  
158  541  63.9057  -54.56131  84.029015  
159  570  79.38399  -43.274017  90.41271  
160  592  67.89612  -46.3739  82.22179  
161  598  52.22815  -35.64685  63.233517  
162  586  55.627777  -51.986267  76.138176  
163  559  50.66266  -40.108673  64.61742  
164  532  56.94261  -19.499207  60.1887  
165  514  55.354736  -62.75644  83.681046  
166  512  4.183182  -66.327545  66.45933  
167  525  91.67934  1.4825134  91.69132  
168  551  50.24759  0.43356323  50.249462  
169  579  44.113503  -26.266663  51.341393  
170  595  52.879753  -52.83252  74.74987  
171  596  45.63801  -24.644135  51.866764  
172  576  61.83995  -22.254547  65.72248  
173  548  68.22226  -28.41446  73.90303  
174  523  50.611534  -30.552155  59.1182  
175  510  62.29503  -51.383026  80.752  
176  515  42.733925  -42.562897  60.314083  
177  535  23.814148  -30.909576  39.019424  
178  563  64.63301  -34.93033  73.46805  
179  586  45.57737  -36.977753  58.691147  
180  598  56.509125  -34.616577  66.269066  
181  589  35.570755  -40.78717  54.119053  
182  567  49.280197  -36.173706  61.13162  
183  539  51.30832  -21.143158  55.493935  
184  516  48.127182  -7.8904114  48.769707  
185  509  44.365803  -33.18524  55.40383  
186  521  41.16681  -27.986969  49.779278  
187  546  25.640217  -37.390076  45.336945  
188  575  50.83933  -30.70462  59.392014  
189  594  47.552013  -44.768585  65.31019  
190  597  43.808674  -40.8461  59.89661  
191  582  51.38883  -21.136475  55.565838  
192  555  62.133194  -29.46991  68.76779  
193  527  56.287155  -18.389038  59.214867  
194  512  21.588428  -31.949585  38.559513  
195  513  34.62451  -36.48517  50.299347  
196  530  62.83558  -18.825623  65.59508  
197  558  44.755245  -24.493286  51.019146  
198  583  60.01216  -44.71698  74.84028  
199  598  57.78803  -23.280762  62.301285  
200  593  38.86733  -16.425537  42.195587  
201  572  61.857788  -18.638794  64.60488  
202  544  28.07333  -19.994385  34.46574  
203  520  51.268883  3.1272278  51.36417  
204  510  35.504906  -34.016968  49.170647  
205  518  26.526594  -29.807434  39.901672  
206  540  41.94988  -20.014893  46.479977  
207  569  51.234844  -45.72711  68.67298  
208  591  43.151497  -2.9873047  43.254776  
209  599  49.346443  -50.369263  70.51336  
210  586  49.036312  -22.812744  54.083096  
211  561  19.602932  -25.648346  32.28177  
212  533  36.759144  -19.493439  41.608036  
213  513  35.398342  -21.845612  41.596554  
214  510  49.87278  -38.706696  63.130836  
215  526  56.559566  -26.151672  62.312878  
216  552  30.72882  -20.032684  36.681995  
217  580  5.358879  -23.598053  24.198877  
218  596  19.891777  -14.129242  24.399145  
219  595  50.264954  -22.667297  55.13957  
220  578  37.994225  1.5647278  38.026432  
221  549  52.341515  9.004547  53.110413  
222  523  51.637108  1.4561157  51.657635  
223  511  30.826538  -34.13092  45.99125  
224  515  33.13685  -21.16391  39.31872  
225  535  44.802887  -17.319977  48.034157  
226  563  23.355583  -9.379028  25.168423  
227  587  27.034897  -8.391602  28.307323  
228  598  19.666115  -22.804138  30.112867  
229  590  39.853134  -13.812897  42.179005  
230  567  36.977196  -20.219849  42.14446  
231  538  41.783295  -27.972687  50.282352  
232  516  35.797516  -7.345978  36.543476  
233  510  27.5  -13.921722  30.823114  
234  521  35.378204  -30.474548  46.693848  
235  546  34.018402  -18.472412  38.710228  
236  573  39.527634  -26.274384  47.46343  
237  594  33.05687  -32.121338  46.0927  
238  596  22.866913  -7.490204  24.062395  
239  582  16.235031  -27.489899  31.92602  
240  555  50.71254  -8.580078  51.43325  
241  529  34.960434  12.212097  37.031975  
242  512  42.788315  -21.966919  48.097664  
243  513  34.119614  -20.4458  39.77661  
244  529  33.938858  -42.095184  54.072643  
245  557  29.91977  -15.551422  33.720013  
246  583  12.889969  -19.479187  23.357868  
247  597  9.071518  -14.222443  16.869211  
248  594  37.11963  -15.985596  40.41542  
249  573  26.38295  -13.8063965  29.777117  
250  544  13.518311  8.095459  15.756941  
251  520  39.009644  -27.941406  47.984108  
252  510  41.949966  -24.16156  48.41054  
253  517  38.04538  -5.1749268  38.395714  
254  540  56.104935  -10.126434  57.011475  
255  568  18.192657  -15.87793  24.14708  
256  591  33.756775  -11.8038025  35.761005  
257  597  53.45349  -18.63385  56.60827  
258  586  16.429932  -26.616272  31.278883  
259  562  39.85573  -19.21106  44.24414  
260  534  35.403076  -8.833496  36.48847  
261  514  17.292358  -13.24765  21.783615  
262  511  38.451996  1.1922302  38.470474  
263  524  14.297974  -19.722504  24.359991  
264  551  25.148468  5.8926086  25.829601  
265  577  52.67903  3.9183655  52.82456  
266  595  20.036087  -5.6411133  20.815065  
267  596  41.70233  -11.889923  43.36421  
268  579  38.406494  -27.81659  47.42174  
269  551  15.546265  -5.5470886  16.506258  
270  524  34.176727  -27.28363  43.731514  
271  512  35.585144  -13.337189  38.00241  
272  514  36.272858  -14.312561  38.99448  
273  533  24.074646  -23.8219  33.868446  
274  562  10.132172  -7.9867554  12.901518  
275  586  37.665833  -12.626068  39.725716  
276  597  43.240448  -24.428925  49.66396  
277  591  47.817627  -16.587067  50.61281  
278  569  21.200317  -6.842102  22.27707  
279  540  7.585602  1.646637  7.7622657  
280  517  48.24283  -25.09024  54.3773  
281  510  44.010742  -25.59021  50.909767  
282  521  20.543152  -9.995483  22.845804  
283  545  24.095917  -11.275177  26.603437  
284  573  15.730713  -13.231873  20.555723  
285  592  37.198914  -34.58023  50.789284  
286  596  37.822357  -1.5708008  37.85496  
287  584  46.90338  -10.129303  47.984684  
288  557  48.89798  -21.116852  53.262875  
289  529  45.744293  7.6373596  46.37747  
290  512  47.400238  -6.9155884  47.902065  
291  511  42.851715  -8.748596  43.735653  
292  528  42.286407  -2.3608704  42.35226  
293  556  48.960876  -24.627167  54.805702  
294  581  45.52481  -22.765503  50.89967  
295  597  17.808655  -17.336151  24.853376  
296  594  31.345825  -11.948273  33.54582  
297  574  28.016113  13.685638  31.18011  
298  545  46.145782  -16.004425  48.842346  
299  521  33.04065  -19.798706  38.518482  
300  509  17.179718  -18.867249  25.51697  
301  516  30.88852  -20.511597  37.078648  
302  539  27.105164  -6.1999207  27.805195  
303  567  19.630676  10.456329  22.241814  
304  588  39.5466  -29.737732  49.479958  
305  597  33.82837  10.112427  35.307503  
306  588  29.76242  -22.650482  37.40115  
307  563  26.584076  -24.218414  35.96171  
308  534  20.868683  18.0018  27.56024  
309  515  27.173218  -2.6662598  27.303713  
310  509  24.161987  -21.886963  32.60124  
311  525  20.318146  -5.5355835  21.058722  
312  549  36.25824  3.559143  36.432503  
313  576  25.134277  2.238678  25.233778  
314  596  31.161438  -21.716705  37.98224  
315  596  31.704163  -5.549835  32.18625  
316  579  42.083374  -14.180817  44.4084  
317  551  39.568665  4.23584  39.794743  
318  525  23.2005  22.775635  32.511425  
319  510  27.068878  -6.736786  27.894596  
320  514  32.658752  -3.8453674  32.884357  
321  533  50.108948  -17.217072  52.984283  
322  561  30.974945  -18.638794  36.150406  
323  585  16.724457  0.9413147  16.750927  
324  597  27.429565  -13.707367  30.66387  
325  590  30.904358  -13.32074  33.652958  
326  570  33.91339  -12.914581  36.289177  
327  540  40.456543  -13.561798  42.669125  
328  517  36.52487  -6.5874634  37.114162  
329  510  16.880981  3.4442139  17.22876  
330  520  19.095795  -13.141632  23.180851  
331  544  28.128998  -2.9391174  28.282131  
332  572  30.168915  -3.3247986  30.351568  
333  592  15.628967  -2.4162598  15.814643  
334  597  48.335876  3.6021729  48.469913  
335  584  9.810028  16.934128  19.57042  
336  557  43.309296  15.851868  46.11916  
337  530  42.28952  -18.21817  46.046772  
338  513  30.182343  -3.8675842  30.42913  
339  512  27.305237  -2.5760498  27.426483  
340  528  22.591675  13.944489  26.548681  
341  555  38.550568  -6.3214264  39.065414  
342  581  45.136658  -11.243652  46.51599  
343  596  19.710114  -25.864166  32.518356  
344  593  18.501556  3.1734924  18.771751  
345  575  21.536438  -5.0283813  22.115667  
346  546  35.212677  -13.83725  37.833874  
347  521  26.339355  -1.101181  26.362364  
348  509  29.990753  -18.059052  35.00821  
349  516  24.325073  11.401657  26.864605  
350  538  21.90155  -9.28009  23.786509  
351  566  36.470947  2.1965942  36.537037  
352  589  21.195953  -29.481339  36.310024  
353  597  39.43857  -23.93454  46.1331  
354  588  27.423279  2.241394  27.514725  
355  564  42.315643  -7.2043  42.924534  
356  536  28.063416  -7.3677673  29.014467  
357  515  42.893646  -0.9926605  42.905132  
358  510  33.305054  1.7201691  33.349445  
359  524  9.221954  5.796036  10.892129  
360  550  22.022644  -8.43013  23.581009  
361  577  41.119568  -18.121338  44.935528  
362  596  37.70584  16.264801  41.06427  
363  596  24.998016  2.2604218  25.100006  
364  581  28.025696  19.514038  34.150215  
365  553  19.590515  1.0059967  19.616327  
366  527  19.099304  -15.342178  24.498281  
367  511  16.672485  -10.406296  19.653568  
368  514  34.596466  15.420044  37.877342  
369  533  23.355438  2.7229156  23.51363  
370  560  38.659485  24.972824  46.023884  
371  585  25.247192  6.737488  26.130718  
372  597  46.923645  10.743996  48.137943  
373  591  20.1969  -21.75  29.681261  
374  570  45.40616  2.2013855  45.45949  
375  540  13.1276245  -9.568123  16.244492  
376  518  27.859528  -28.75026  40.03412  
377  510  -0.6890259  20.608376  20.61989  
378  520  38.434875  -7.86718  39.231777  
379  543  14.387451  -26.876228  30.484922  
380  571  46.529358  -26.322426  53.458874  
381  592  42.360596  -6.600456  42.87174  
382  596  31.291656  2.132904  31.364264  
383  584  41.603058  -30.089958  51.34413  
384  558  14.076782  12.356903  18.730959  
385  531  43.094635  -3.9976196  43.279655  
386  512  17.304504  20.447083  26.786734  
387  512  24.408813  6.9473457  25.378254  
388  527  33.48343  -1.3796577  33.51184  
389  554  29.470703  -4.299038  29.782614  
390  581  23.066772  16.489513  28.354542  
391  597  39.989685  -17.43827  43.62646  
392  594  20.51062  -2.5014648  20.662596  
393  575  20.234497  -10.634249  22.858742  
394  546  38.248474  5.4811745  38.639217  
395  522  30.916504  -4.5150204  31.24445  
396  510  48.495605  -10.939079  49.714054  
397  516  26.509094  -12.932568  29.495481  
398  538  41.793457  -12.228254  43.545643  
399  565  7.8690186  -8.772158  11.784406  
400  589  1.0004272  -0.44440365  1.0946914  
401  597  8.146973  7.866477  11.324956  
402  589  42.13971  11.397157  43.653755  
403  565  25.570923  10.730465  27.73112  
404  537  48.327698  10.267019  49.406254  
405  515  31.552551  2.7698765  31.673897  
406  511  38.6568  -6.8958817  39.26705  
407  523  19.516602  9.601082  21.750368  
408  549  20.9953  2.1256905  21.102634  
409  576  40.155487  16.557934  43.435333  
410  595  24.089294  -16.845802  29.395157  
411  596  27.752472  1.7403984  27.80699  
412  580  34.171112  0.8275871  34.181133  
413  553  24.82022  -7.5082817  25.931017  
414  526  17.539795  -21.212841  27.525063  
415  510  42.64322  2.9854965  42.7476  
416  513  14.067322  -12.90023  19.086788  
417  533  41.805664  28.527573  50.611618  
418  560  31.089172  -2.8309097  31.217794  
419  585  42.277405  4.8505554  42.55475  
420  596  45.884735  24.727715  52.12359  
421  591  14.885468  26.364204  30.276203  
422  570  38.178833  6.306839  38.696247  
423  541  -0.6769104  -21.818413  21.82891  
424  519  28.574036  26.831604  39.19707  
425  509  13.78891  8.571739  16.236032  
426  520  46.367615  -3.0927277  46.470642  
427  542  20.547699  20.419266  28.96816  
428  571  47.29785  -11.9735565  48.789883  
429  591  24.754913  -7.724472  25.932089  
430  599  38.748016  -26.358643  46.86349  
431  584  23.603973  -4.0172806  23.943394  
432  559  34.035187  -16.40039  37.780506  
433  531  16.121674  10.255768  19.107306  
434  513  18.569397  12.718445  22.507362  
435  511  19.007416  -2.7692566  19.208088  
436  527  28.724579  -19.69815  34.829853  
437  554  24.618774  -2.8002167  24.777515  
438  580  36.958435  -17.074371  40.711914  
439  595  41.080353  17.153885  44.517986  
440  593  21.478638  7.298691  22.684858  
441  575  8.162537  -6.998047  10.751729  
442  547  33.60083  -3.1823883  33.751198  
443  522  42.94638  -0.3836975  42.948093  
444  510  28.325073  7.570999  29.319443  
445  516  42.535004  7.029648  43.111977  
446  537  28.22293  -3.0657196  28.388948  
447  565  38.504883  23.191727  44.949776  
448  588  22.1203  27.340164  35.168056  
449  599  36.3844  -2.976471  36.505943  
450  589  22.485626  8.01709  23.872099  
451  566  24.228271  -12.698975  27.354582  
452  536  30.284668  17.210876  34.833538  
453  516  27.226837  0.47605896  27.230999  
454  510  35.539642  12.513519  37.6783  
455  522  21.617767  4.226822  22.027117  
456  548  16.566895  -4.223816  17.096859  
457  576  20.295258  24.581436  31.877022  
458  594  48.923706  7.300583  49.46542  
459  595  38.798096  4.8635254  39.10174  
460  581  22.63742  -15.507919  27.439905  
461  553  27.994171  1.0447998  28.013662  
462  526  30.73349  3.160843  30.895603  
463  510  42.98999  17.281021  46.333282  
464  513  41.626434  -17.664627  45.219456  
465  531  10.045563  -17.47931  20.160347  
466  559  50.03363  -4.7086334  50.254704  
467  585  17.623047  1.8516846  17.72006  
468  597  29.823517  2.688263  29.94443  
469  592  27.497925  1.7675171  27.554672  
470  570  19.371552  12.932892  23.291988  
471  541  17.575989  -3.7736816  17.976542  
472  519  37.00528  5.800171  37.457077  
473  509  41.37442  13.2005005  43.429203  
474  518  34.48532  10.130341  35.94247  
475  542  31.623627  12.241791  33.9104  
476  571  26.77771  13.89801  30.169529  
477  592  17.994446  -1.6046448  18.065851  
478  596  30.40857  18.050934  35.362656  
479  585  53.11151  16.306763  55.558468  
480  559  32.32065  3.2000122  32.478676  
481  532  27.473297  6.10968  28.144453  
482  513  22.953796  -23.744385  33.025333  
483  512  39.990112  -5.463379  40.361588  
484  527  43.050964  12.376617  44.794712  
485  554  31.123901  4.8380127  31.497677  
486  580  32.23987  21.282501  38.630997  
487  596  25.50763  -1.9593201  25.58277  
488  594  36.931152  -4.3839417  37.19044  
489  577  21.423492  4.334137  21.85751  
490  549  23.760132  20.88208  31.632343  
491  522  27.762146  1.7948914  27.820107  
492  510  20.88971  -19.731598  28.735273  
493  515  26.796082  24.458618  36.280212  
494  536  30.68805  20.673462  37.002007  
495  565  33.88748  -11.539032  35.798195  
496  587  39.424927  28.365723  48.56891  
497  598  20.52774  -11.76474  23.660034  
498  590  28.107239  7.1397705  28.999882  
499  566  31.055878  19.851868  36.858707  
500  538  17.678009  17.703522  25.018526  
501  516  32.622253  18.88681  37.695133  
502  509  49.27588  12.884857  50.93262  
503  523  27.538086  -15.160767  31.43557  
504  547  31.559814  10.959503  33.40857  
505  575  18.339325  16.622925  24.751818  
506  595  46.698975  21.475952  51.400494  
507  597  49.169067  23.241028  54.38513  
508  581  43.226013  0.658905  43.231033  
509  554  42.336548  8.668884  43.214962  
510  528  46.674652  6.8616943  47.176327  
511  511  49.636078  -11.046631  50.85045  
512  512  49.065186  19.93805  52.96148  
513  531  47.399475  9.766388  48.395172  
514  559  38.40088  0.67370605  38.406788  
515  583  38.660492  32.159058  50.28756  
516  597  16.928894  12.963562  21.322323  
517  593  24.814148  10.648315  27.00238  
518  571  21.39038  9.200012  23.284945  
519  543  44.15149  23.610352  50.06798  
520  519  46.492096  28.05896  54.30304  
521  509  8.195496  -3.0978088  8.761425  
522  519  22.103882  6.377899  23.005634  
523  541  47.4711  13.350739  49.31275  
524  569  43.010834  22.904236  48.729206  
525  591  38.531647  9.964539  39.799244  
526  598  10.877289  7.5324707  13.23078  
527  586  24.96936  23.185028  34.07366  
528  560  36.48297  13.770721  38.995384  
529  532  37.856964  13.014099  40.031445  
530  513  33.168213  28.398315  43.66457  
531  510  16.025757  4.095642  16.540834  
532  526  39.86035  27.106354  48.203754  
533  552  41.914032  10.704254  43.2593  
534  580  19.787735  4.4765625  20.28778  
535  596  53.18773  -4.3537903  53.365627  
536  595  25.406784  -6.6457825  26.261591  
537  578  14.906799  18.579529  23.820402  
538  549  38.920914  -2.5228271  39.00259  
539  523  17.734879  12.085388  21.461185  
540  510  40.302322  8.829498  41.25818  
541  515  40.856445  18.671997  44.92096  
542  535  17.327042  25.424011  30.766975  
543  564  54.79622  18.303833  57.77245  
544  587  34.734467  10.872223  36.396267  
545  598  18.45462  13.538116  22.887848  
546  590  56.346375  8.703278  57.01457  
547  567  36.792206  5.462311  37.195473  
548  538  42.37784  22.380096  47.92442  
549  516  40.467484  26.626068  48.441353  
550  510  13.791855  -9.544464  16.77236  
551  522  26.50116  12.922363  29.483875  
552  546  36.920547  15.037445  39.865417  
553  574  8.854095  13.629181  16.25268  
554  594  13.874741  18.399628  23.044624  
555  597  30.673218  15.013489  34.15042  
556  582  35.393738  41.34143  54.422703  
557  554  36.641632  20.188873  41.83539  
558  529  44.438965  20.44516  48.916523  
559  512  35.424454  -12.899353  37.699936  
560  513  51.36154  7.496704  51.90577  
561  531  17.604416  26.365082  31.702255  
562  557  22.961288  8.560211  24.50506  
563  583  33.02443  29.536469  44.305935  
564  596  39.777023  26.685333  47.899048  
565  592  34.731964  17.820984  39.03712  
566  572  36.08719  29.775818  46.785515  
567  544  28.38617  12.742737  31.115139  
568  519  37.09163  6.3746643  37.635426  
569  509  44.885124  25.907043  51.82518  
570  517  39.638046  19.677979  44.253784  
571  541  41.023132  12.808838  42.976315  
572  569  20.154816  21.982574  29.823652  
573  591  27.723946  7.1244507  28.624727  
574  597  23.21334  9.12915  24.943949  
575  586  45.258347  17.096802  48.379936  
576  561  34.327164  19.567474  39.51253  
577  533  31.583939  33.35025  45.93239  
578  514  51.121643  -2.7478943  51.195442  
579  511  53.195038  -9.986481  54.124317  
580  525  39.195717  -2.2887878  39.262486  
581  551  52.029274  22.147064  56.546776  
582  578  19.430489  14.708557  24.369768  
583  596  7.478035  23.12741  24.30634  
584  596  31.877129  19.105103  37.16391  
585  578  56.440502  25.931427  62.112553  
586  549  50.312317  38.002197  63.051537  
587  524  35.712547  20.834564  41.345676  
588  510  36.977783  17.930756  41.095844  
589  514  20.47956  24.656342  32.052265  
590  535  49.60028  22.488525  54.460274  
591  562  49.85721  48.704895  69.69869  
592  587  44.210236  1.8826294  44.2503  
593  597  49.201538  44.382263  66.26143  
594  591  42.747627  19.300842  46.9029  
595  567  27.219757  28.170166  39.172356  
596  538  36.72384  33.375916  49.62451  
597  516  51.68465  -4.2340393  51.857784  
598  510  28.532864  17.931458  33.699577  
599  521  57.900517  24.99353  63.06462  
600  546  40.335396  14.911682  43.003517  
601  573  58.86857  23.20282  63.276215  
602  592  60.70719  44.912476  75.514854  
603  598  47.192425  21.911072  52.030952  
604  583  64.152695  17.52771  66.50405  
605  555  35.274544  35.682007  50.174686  
606  528  22.85812  31.299072  38.757263  
607  512  55.89001  17.466064  58.555588  
608  512  62.938313  28.716492  69.17997  
609  530  52.40907  20.22351  56.175625  
610  557  44.770725  39.893097  59.96563  
611  582  48.438595  44.337463  65.66664  
612  596  52.731674  28.985046  60.17277  
613  593  27.143524  36.64444  45.602478  
614  572  41.381916  27.485168  49.677937  
615  544  41.906227  33.16629  53.442818  
616  519  49.855812  7.273041  50.383522  
617  510  53.599197  21.292542  57.67362  
618  518  51.354073  34.835724  62.05456  
619  540  35.99418  39.811523  53.670647  
620  568  58.419373  33.65927  67.422325  
621  591  47.283585  35.947266  59.396492  
622  597  66.01534  34.25061  74.37157  
623  588  25.556534  29.593079  39.100983  
624  562  43.831963  41.642914  60.459682  
625  534  63.933975  50.642395  81.56105  
626  514  52.026085  29.916748  60.014378  
627  510  71.44028  20.636322  74.361084  
628  525  62.578728  21.203125  66.07322  
629  552  47.60415  24.441467  53.51206  
630  579  54.33853  51.445312  74.828445  
631  594  44.91255  25.035187  51.41885  
632  595  50.970825  -2.540985  51.03412  
633  578  93.21675  -1.7821045  93.23378  
634  550  5.2868195  65.26419  65.477974  
635  524  56.100204  61.43277  83.193855  
636  511  58.2937  18.062378  61.027905  
637  514  51.9377  39.49109  65.24623  
638  534  57.296295  50.46634  76.352585  
639  562  53.124847  34.914886  63.57121  
640  587  70.35257  46.29413  84.21775  
641  599  80.0795  42.73993  90.77129  
642  590  65.448975  54.434814  85.127655  
643  569  49.06967  43.066956  65.28856  
644  540  54.008163  41.76056  68.27024  
645  516  78.80356  41.99356  89.294235  
646  510  53.026947  63.99771  83.111755  
647  520  47.87581  48.59326  68.21582  
648  545  38.538437  29.082458  48.280437  
649  573  68.08386  47.86737  83.22678  
650  594  77.31012  55.312836  95.05979  
651  598  73.918564  43.061615  85.546814  
652  582  50.74034  46.881897  69.083244  
653  555  66.448654  39.91037  77.51298  
654  528  68.92825  57.904266  90.02226  
655  512  78.26457  35.097717  85.77408  
656  512  90.56326  39.227905  98.69414  
657  529  49.789505  56.351013  75.19595  
658  557  49.72281  63.87146  80.94394  
659  582  78.03841  44.776062  89.971596  
660  596  76.1797  50.74707  91.53476  
661  595  70.79741  26.211853  75.493935  
662  573  53.150146  33.69928  62.933136  
663  545  77.86337  37.613464  86.47241  
664  520  84.22104  69.33502  109.08955  
665  510  91.20268  51.37671  104.67806  
666  517  69.96474  57.782562  90.740776  
667  539  97.65109  99.27872  139.25516  
668  567  98.00214  74.346344  123.011375  
669  590  90.04895  60.848724  108.680176  
670  598  102.40646  56.608154  117.01097  
671  586  77.624466  62.381134  99.58395  
672  562  72.60034  68.34494  99.70878  
673  534  92.3475  90.53491  129.32375  
674  514  89.57535  90.21829  127.13412  
675  510  79.36865  87.23285  117.936226  
676  525  63.60257  33.467743  71.87056  
677  550  117.08635  78.77188  141.11777  
678  578  111.061844  54.979004  123.92507  
679  595  98.11008  80.521515  126.92242  
680  596  89.03316  92.54047  128.4159  
681  579  122.58882  92.6716  153.67513  
682  551  94.83943  77.61487  122.55034  
683  526  112.9684  93.93503  146.92055  
684  510  110.018585  112.667206  157.47377  
685  514  114.69098  102.37717  153.73714  
686  533  125.161194  84.99844  151.2946  
687  562  134.13014  81.65704  157.0311  
688  586  127.42319  100.061005  162.01505  
689  598  142.22604  121.41559  187.00266  
690  590  131.3158  116.90411  175.81357  
691  568  132.66727  103.12738  168.0353  
692  540  135.22974  125.78198  184.68402  
693  517  158.19783  127.276276  203.04138  
694  510  183.71194  120.70978  219.82022  
695  520  169.75008  131.36145  214.64137  
696  544  189.02023  124.887054  226.55115  
697  571  202.3861  143.59839  248.15443  
698  592  197.59631  154.47308  250.81116  
699  598  234.9636  162.82358  285.86606  
700  584  228.57704  195.6135  300.8523  
701  557  231.10558  163.36758  283.0172  
702  529  238.02277  189.18524  304.04916  
703  512  263.10077  185.3151  321.81314  
704  511  288.96497  229.64847  369.1059  
705  528  293.7375  252.27982  387.20383  
706  555  334.21442  261.05304  424.08487  
707  582  379.58218  313.14307  492.07846  
708  597  440.90555  314.4533  541.552  
709  593  470.6002  329.95013  574.7448  
710  573  520.7134  427.0996  673.46606  
711  546  635.4785  509.20117  814.32104  
712  522  767.43445  593.8682  970.37885  
713  510  961.3573  743.7916  1215.4974  
714  517  1355.8444  1018.8965  1696.0142  
715  538  2126.5996  1548.5745  2630.686  
716  567  5023.0366  3719.4702  6250.2285  
717  589  -12267.662  -9096.152  15272.05  
718  596  -2752.2727  -2032.988  3421.7021  
719  587  -1517.3385  -1128.5449  1891.013  
720  563  -1097.0417  -821.9165  1370.7834  
721  535  -827.25256  -574.803  1007.34564  
722  514  -684.1189  -462.55365  825.81744  
723  510  -574.95483  -418.14896  710.9301  
724  524  -494.48422  -355.58884  609.0633  
725  549  -431.96814  -318.57138  536.73474  
726  576  -385.82162  -288.9718  482.0405  
727  595  -354.80603  -246.54889  432.0575  
728  596  -322.68033  -218.23349  389.54904  
729  580  -287.17654  -199.73206  349.8046  
730  552  -254.53467  -186.27905  315.41684  
731  526  -249.478  -157.15045  294.84833  
732  510  -232.47614  -163.58282  284.26132  
733  514  -212.05869  -162.07858  266.90512  
734  533  -184.92801  -122.77411  221.97263  
735  561  -201.62115  -139.18646  244.99788  
736  585  -191.31702  -124.667404  228.35095  
737  597  -166.83597  -101.708755  195.39424  
738  590  -167.9267  -94.18033  192.53392  
739  570  -150.61258  -112.723755  188.1244  
740  541  -142.61761  -97.94202  173.00989  
741  518  -130.03268  -120.1942  177.07384  
742  510  -145.67212  -103.85239  178.90134  
743  519  -123.03613  -100.693375  158.98756  
744  544  -131.18124  -88.82237  158.42328  
745  572  -126.08844  -83.759  151.37326  
746  593  -123.61624  -62.302856  138.42912  
747  597  -116.01236  -56.982788  129.25133  
748  583  -113.891205  -32.7632  118.510056  
749  556  -91.51877  -56.5614  107.5866  
750  530  -105.716705  -72.06999  127.94571  
751  512  -107.21637  -69.40518  127.720116  
752  512  -103.127594  -80.783295  131.00093  
753  528  -118.91574  -73.179  139.62851  
754  555  -82.71152  -65.57736  105.55371  
755  581  -91.15384  -33.63008  97.15969  
756  597  -110.2999  -47.440674  120.069496  
757  593  -92.76239  -41.534256  101.63639  
758  574  -107.12335  -54.023026  119.97458  
759  547  -81.17496  -51.57364  96.17284  
760  522  -83.31  -25.603683  87.15563  
761  509  -89.13986  -37.265823  96.61603  
762  516  -100.092804  -30.701462  104.69551  
763  538  -78.758545  -60.302963  99.19353  
764  567  -63.033295  -25.716965  68.07759  
765  589  -67.61838  -55.28943  87.3451  
766  598  -98.21771  -25.925293  101.58169  
767  588  -85.7038  -47.290573  97.88534  
768  563  -79.52673  -4.1247635  79.63363  
769  536  -73.97952  -21.415901  77.016945  
770  515  -57.726166  -32.493706  66.243126  
771  511  -55.524933  -33.28911  64.73934  
772  523  -60.04843  -62.6466  86.77794  
773  549  -69.29474  -15.513138  71.00999  
774  576  -45.52426  -34.31893  57.01094  
775  596  -62.065765  -11.555191  63.132256  
776  596  -57.47455  -25.155914  62.738693  
777  579  -63.14435  -14.952484  64.890564  
778  552  -38.800446  -3.4035416  38.949436  
779  524  -54.135468  -14.428047  56.02515  
780  510  -26.55426  -8.323013  27.828066  
781  513  -60.296448  -44.961624  75.21442  
782  532  -58.416107  12.040184  59.64401  
783  560  -76.98978  -15.371971  78.509384  
784  586  -36.38849  0.9425125  36.400692  
785  597  -34.892273  -11.786034  36.829082  
786  591  -43.415344  -15.95311  46.253582  
787  569  -39.117645  -4.0414886  39.325867  
788  541  -47.861633  9.641289  48.82305  
789  518  -38.21573  -25.63171  46.015503  
790  509  -49.29956  1.8017349  49.332474  
791  519  -35.763885  9.737759  37.06588  
792  544  -34.635864  0.030834198  34.63588  
793  571  -30.024963  3.6408882  30.244907  
794  592  -7.3794556  -23.758741  24.878387  
795  598  -17.38324  26.307505  31.531918  
796  584  20.178833  12.481093  23.726841  
797  558  39.1604  4.3857775  39.405228  
798  530  75.39661  10.1125765  76.07176  
799  513  206.72424  5.63163  206.80093  
