n v(n)    Re(T)       Im(T)        Mod(T) 
   
0  552  442303.0  0.0  442303.0  
1  520  -16.987122  -26.839622  31.76362  
2  597  -11.417236  -84.0488  84.82072  
3  525  -6.854309  4.482544  8.189918  
4  546  -13.660645  6.9019604  15.305236  
5  589  -29.02478  -3.5361958  29.2394  
6  510  -38.291626  3.297514  38.43335  
7  575  -40.67157  -7.855591  41.423267  
8  565  -60.047424  -42.750397  73.71085  
9  514  -47.12799  -18.800266  50.739506  
10  578  -12.113098  29.05069  31.474905  
11  562  -24.206787  15.165283  28.564915  
12  515  -43.36841  22.592712  48.900406  
13  596  -31.974304  18.358086  36.86971  
14  533  -29.805664  23.62497  38.0331  
15  536  -54.756042  204.6735  211.87134  
16  595  -60.54962  -182.16287  191.96242  
17  513  -99.60956  -84.57016  130.66818  
18  565  8.968628  -22.46724  24.19118  
19  594  -31.266113  -3.8764648  31.505505  
20  512  -15.243713  -59.97516  61.88207  
21  567  -8.329407  -43.694862  44.48168  
22  576  -28.041931  -34.257553  44.271095  
23  509  -23.004517  -5.0401306  23.550173  
24  588  -51.219666  -3.4929886  51.33863  
25  549  -54.717834  0.7291794  54.722694  
26  523  -29.347534  -23.401993  37.53573  
27  597  -59.282227  -6.730789  59.6631  
28  525  -33.726685  -51.117355  61.241108  
29  522  -11.770264  5.890877  13.162126  
30  597  7.871765  -28.753242  29.8113  
31  525  -85.463196  -38.382523  93.686584  
32  547  -73.67444  -36.272858  82.11969  
33  591  -128.01654  113.79239  171.2803  
34  511  -7.4866333  -13.588608  15.514507  
35  570  384.75345  292.6664  483.41373  
36  572  -27.037842  7.929886  28.176727  
37  510  -62.48871  48.158295  78.892715  
38  589  -32.60144  10.839294  34.35614  
39  574  5.5357666  -2.4174957  6.040612  
40  510  -21.3638  14.927963  26.06254  
41  588  -26.24585  47.857178  54.58163  
42  550  31.094574  -23.297256  38.85402  
43  521  -12.84903  38.81584  40.88725  
44  596  -13.597534  23.709305  27.331741  
45  527  38.680084  -23.7193  45.373497  
46  544  14.669769  -32.370163  35.539127  
47  592  39.213104  4.9878235  39.529053  
48  529  242.3952  142.11748  280.98544  
49  542  -150.90594  -76.30267  169.09969  
50  593  -52.901306  -97.76532  111.16027  
51  513  -161.42795  -7.594864  161.6065  
52  567  -92.74887  -35.891937  99.45142  
53  576  -32.87674  13.864548  35.680607  
54  510  -51.775116  19.935074  55.480354  
55  585  -71.61304  32.85872  78.79164  
56  554  -53.304413  -31.294434  61.811825  
57  521  -62.872406  -1.9388733  62.902294  
58  585  -67.270905  -33.245773  75.0377  
59  554  -36.06308  4.102066  36.295628  
60  518  -51.28183  55.282715  75.4056  
61  596  -57.296173  -0.4093933  57.297638  
62  531  -66.037445  16.8414  68.15114  
63  537  -67.324615  12.761154  68.52336  
64  594  -37.97281  -15.42688  40.986862  
65  514  -55.338745  36.976654  66.55561  
66  563  -153.00195  -80.437225  172.85759  
67  593  -107.503265  21.286621  109.59048  
68  512  154.09726  -135.26819  205.04498  
69  564  -1.8097229  -24.936829  25.002409  
70  579  -5.5877686  -16.668915  17.580553  
71  509  -37.67163  -4.8804016  37.986446  
72  586  -29.798218  2.8126526  29.930666  
73  553  -31.958588  5.006378  32.34834  
74  520  -35.27536  -14.181671  38.01935  
75  596  -49.724976  -5.861847  50.069298  
76  528  -18.904419  2.5613403  19.077147  
77  521  -33.567932  -8.982422  34.748955  
78  597  -16.502563  -19.271484  25.37173  
79  527  -3.9422302  13.1718445  13.749133  
80  542  -26.5484  3.5601196  26.786041  
81  591  -90.821625  52.908234  105.10875  
82  510  16.148407  -2.1609192  16.292349  
83  570  10.207947  70.33899  71.07584  
84  571  -22.71518  -60.130463  64.27792  
85  512  57.006714  -24.618713  62.095463  
86  591  -79.97757  -35.148956  87.36052  
87  568  -42.52179  15.754578  45.346546  
88  512  -48.16208  -26.108826  54.78373  
89  591  -56.25641  -53.821167  77.855644  
90  541  -54.606903  -25.100891  60.099655  
91  530  -43.417145  -8.739166  44.287937  
92  597  -29.322693  3.014038  29.47719  
93  519  -43.266144  -2.2824097  43.326305  
94  555  -31.035583  -4.0473022  31.298372  
95  583  -64.131195  -9.782318  64.872986  
96  517  -60.228912  -30.369202  67.452286  
97  558  -58.095398  -21.940552  62.100426  
98  582  -174.34464  12.265442  174.77554  
99  508  263.47488  -140.6485  298.6654  
100  573  7.6665955  -79.07684  79.44762  
101  569  22.504242  76.335754  79.58385  
102  512  -28.840424  -44.85022  53.32272  
103  592  11.795044  -21.595398  24.60659  
104  540  -1.3886108  -8.710236  8.820229  
105  529  -27.196198  -2.845337  27.344637  
106  593  -51.1286  -11.700043  52.450214  
107  537  -27.937225  -39.358795  48.265965  
108  532  -31.233948  -27.581207  41.668724  
109  596  -65.423004  9.638824  66.12924  
110  517  -44.882385  -13.067566  46.746014  
111  559  30.261536  47.3674  56.208817  
112  580  -54.60321  4.2729797  54.770145  
113  509  -59.81717  21.366516  63.518673  
114  585  -63.81906  -18.199402  66.36333  
115  580  -97.32672  -3.7757874  97.39993  
116  509  -218.32544  103.82593  241.7557  
117  587  -28.664886  138.89276  141.81987  
118  551  -210.63956  641.89685  675.5743  
119  521  6.142975  -241.92233  242.0003  
120  595  -57.19919  -102.4061  117.29772  
121  535  -6.995392  0.70181274  7.0305085  
122  533  44.394012  -4.856598  44.658875  
123  595  -26.166626  -18.601288  32.10452  
124  517  -23.361176  13.085907  26.776585  
125  533  65.18233  0.010864258  65.18233  
126  594  -60.832855  -33.508575  69.45114  
127  517  -38.679382  -38.96216  54.901226  
128  559  -3.9380493  -25.540802  25.842617  
129  583  -12.494629  1.7501526  12.616608  
130  510  -36.12787  20.64972  41.612904  
131  582  -44.367523  130.39679  137.73816  
132  556  -9.85083  -264.04736  264.23105  
133  517  16.738739  -107.61371  108.90774  
134  595  -120.21384  -128.57333  176.01837  
135  558  -65.53467  -64.93628  92.25786  
136  517  -65.5014  -6.2369385  65.79767  
137  596  -64.944275  -30.119019  71.58851  
138  532  -41.479218  -35.35379  54.501522  
139  537  -36.86296  -45.948883  58.908215  
140  594  -43.06691  -7.1466064  43.65584  
141  515  -30.76332  -38.112885  48.97932  
142  564  -35.245193  -65.711365  74.566795  
143  576  -39.062134  -26.542084  47.226395  
144  514  -59.994644  -54.713257  81.19666  
145  565  -31.810806  -40.54532  51.53494  
146  577  -40.17398  1.681427  40.209152  
147  508  -20.474808  -12.717346  24.102875  
148  586  -38.54918  -28.847656  48.147964  
149  551  27.933975  -158.69373  161.1335  
150  521  -39.03891  2.5934143  39.124958  
151  596  128.71033  111.78461  170.47623  
152  526  -95.87079  -61.827087  114.07803  
153  544  -50.71881  5.5067444  51.01688  
154  597  -50.024506  -12.71582  51.61534  
155  525  -46.335663  -33.19815  57.000973  
156  546  -49.076965  -31.272644  58.193874  
157  590  -30.599762  -54.515564  62.516335  
158  512  -54.495026  -20.426453  58.19749  
159  572  -43.03305  -15.190613  45.63549  
160  571  -15.864777  -41.3132  44.254623  
161  511  -57.918045  -12.974274  59.353447  
162  590  -76.57286  -9.450439  77.15383  
163  571  -70.984344  -29.97522  77.05382  
164  511  -117.81467  -38.714905  124.01266  
165  592  -35.151062  29.700745  46.018818  
166  544  -8.772888  20.908966  22.67484  
167  526  48.445618  -76.582275  90.6191  
168  596  4.1670227  -0.95306396  4.274624  
169  520  -92.96942  -103.15784  138.8699  
170  551  -50.361618  -51.182922  71.80518  
171  586  -11.003441  -17.319153  20.518986  
172  510  -17.750137  -34.386475  38.697506  
173  552  -34.464874  -21.351624  40.54281  
174  586  5.5712814  -15.405762  16.382206  
175  509  -82.481735  -35.101746  89.64022  
176  577  -59.82228  -71.836426  93.48357  
177  562  -57.06086  -63.306396  85.227  
178  513  -68.337425  -48.81494  83.98156  
179  595  -20.504791  -18.54425  27.646622  
180  536  -14.537872  -53.54889  55.487236  
181  532  -48.205353  -32.261536  58.004852  
182  595  288.635  245.19022  378.71942  
183  536  -43.722046  -71.08124  83.45154  
184  533  -148.13463  3.3162842  148.17174  
185  596  -61.68434  -81.11578  101.90549  
186  516  -91.30979  -21.072449  93.7098  
187  560  -52.565838  -32.304382  61.698788  
188  582  -36.78246  -82.201294  90.05555  
189  508  -103.69231  -33.548767  108.98447  
190  583  -60.555725  -80.48279  100.71978  
191  557  -51.505  -45.153748  68.495445  
192  509  -82.36128  -67.17694  106.28322  
193  583  -70.29363  -59.20038  91.90147  
194  556  -139.9678  43.971252  146.71216  
195  517  -156.99193  -127.844604  202.46162  
196  596  -176.63359  -71.04346  190.38539  
197  531  -104.19188  -78.89227  130.69023  
198  540  -160.0942  -140.6181  213.0812  
199  592  -353.7333  -159.13672  387.8811  
200  513  -328.18307  134.43414  354.65005  
201  565  -901.8678  107.75427  908.28217  
202  592  892.2372  -241.04889  924.225  
203  512  175.64677  -102.34619  203.28928  
204  565  74.215614  70.4111  102.30191  
205  576  110.57499  57.99652  124.861626  
206  509  42.308857  -51.547974  66.68758  
207  587  21.8164  -43.274963  48.463158  
208  552  43.542988  22.439514  48.984932  
209  520  -41.613415  -140.28467  146.32657  
210  598  48.117115  -18.214539  51.44926  
211  551  46.59629  -47.15924  66.296364  
212  520  12.161816  16.4693  20.473095  
213  597  17.406357  -75.10492  77.0956  
214  527  -9.920666  -11.287415  15.027486  
215  544  232.2939  -168.86908  287.18848  
216  591  35.28958  -70.01959  78.409805  
217  513  -46.978302  -165.01892  171.57565  
218  570  -35.354164  -45.6037  57.70281  
219  571  -71.625565  -37.987488  81.075714  
220  511  8.824318  -41.563965  42.49037  
221  571  14.941956  -63.73352  65.46162  
222  571  4.370407  -44.69928  44.912426  
223  511  -25.95163  -54.236694  60.12575  
224  590  -33.343452  -22.165344  40.038586  
225  545  -42.053635  -65.36981  77.72851  
226  526  -19.54699  -41.06665  45.481365  
227  597  -36.79014  -45.09955  58.20209  
228  522  8.496857  -90.8465  91.24298  
229  550  -24.06549  -52.250244  57.52596  
230  587  -48.96653  -39.391052  62.84406  
231  522  23.467972  -53.91388  58.800102  
232  551  63.44565  -35.49359  72.699005  
233  586  -115.23302  -33.262573  119.937675  
234  511  -102.354324  74.06119  126.3387  
235  575  -49.93689  -183.9278  190.58627  
236  567  -60.304367  -63.493042  87.567024  
237  513  -43.25255  -66.631165  79.43862  
238  593  -32.448624  -57.271362  65.824936  
239  540  -13.2595215  -63.440613  64.81147  
240  512  -5.6059723  -77.65503  77.85712  
241  593  -53.87793  -108.75525  121.369415  
242  540  -122.40921  -49.29428  131.9619  
243  530  -54.288208  -67.470825  86.59978  
244  598  -74.9955  -58.935852  95.38218  
245  518  -52.003098  -33.87961  62.065693  
246  555  -6.5630493  -27.473755  28.246784  
247  585  34.482162  -173.74408  177.1328  
248  509  -63.815308  -63.783234  90.2258  
249  578  -95.91405  -98.2507  137.30516  
250  585  60.964737  -51.628784  79.88886  
251  509  -54.961258  -59.232605  80.80372  
252  579  23.699127  -140.319  142.30626  
253  562  13.1978  -75.19049  76.33997  
254  515  16.214859  -71.59372  73.40697  
255  595  -24.730988  -94.412415  97.59778  
256  535  -33.053116  -148.83997  152.46588  
257  534  -95.92067  -130.19968  161.71806  
258  595  -139.18251  -87.68982  164.50311  
259  515  -4.160446  -51.64853  51.815826  
260  555  -47.621826  -119.535126  128.672  
261  585  -48.25293  -72.69571  87.25257  
262  509  36.2054  -86.2388  93.53054  
263  579  2.611084  -155.96872  155.99059  
264  561  -153.34015  -36.593475  157.64607  
265  515  -203.33511  327.38464  385.39053  
266  595  10.969025  -361.97614  362.14227  
267  533  -164.77737  -374.4134  409.06842  
268  537  37.53076  -143.91559  148.7288  
269  595  38.050262  -200.50998  204.0884  
270  531  -227.14629  -22.191925  228.22777  
271  539  -104.72345  -164.24069  194.78708  
272  593  22.032562  -280.3267  281.1912  
273  512  -63.152634  -224.8324  233.53342  
274  568  63.693115  -443.35144  447.90323  
275  574  -91.046234  -453.70337  462.7485  
276  511  -168.03616  -442.85785  473.66574  
277  589  -1354.7535  -852.49854  1600.6595  
278  545  573.00464  -1419.9534  1531.2094  
279  510  -290.46472  -1207.0605  1241.5172  
280  591  -365.3648  -764.71423  847.5136  
281  545  212.40894  -1278.1183  1295.6481  
282  527  -1258.4746  -1989.2034  2353.8667  
283  596  -2407.3025  -902.75146  2571.005  
284  520  -1988.2322  -2508.982  3201.2588  
285  553  9042.16  13032.211  15861.879  
286  585  658.9396  1281.6375  1441.1093  
287  508  -783.3251  1673.4242  1847.6869  
288  556  120.37021  1614.3018  1618.7832  
289  584  312.44995  270.08035  412.99924  
290  510  -227.60028  586.63934  629.24365  
291  582  69.441315  749.20844  752.4197  
292  557  1075.9913  -366.94354  1136.84  
293  517  109.42578  1544.2013  1548.0736  
294  596  302.90427  909.1617  958.2932  
295  531  179.75107  535.1949  564.57416  
296  540  251.57791  454.20004  519.2197  
297  592  237.99063  510.46445  563.2171  
298  529  419.8082  333.46967  536.1352  
299  542  89.713135  261.3109  276.28217  
300  592  147.49664  328.59317  360.17874  
301  513  85.032776  184.81726  203.44038  
302  569  6.376587  87.033905  87.26718  
303  573  101.81625  328.19662  343.62708  
304  511  118.99017  178.1481  214.23213  
305  589  -17.052734  171.56271  172.40813  
306  546  -33.648285  282.09573  284.0954  
307  525  118.74164  207.93335  239.44905  
308  591  60.671997  54.825592  81.77369  
309  545  33.292908  110.79904  115.692894  
310  524  136.81201  107.31854  173.88156  
311  596  -8.430878  44.27466  45.070225  
312  522  -46.547546  158.17032  164.8773  
313  551  0.8934326  189.95236  189.95445  
314  586  42.878723  85.147064  95.33419  
315  509  -5.4029846  183.79776  183.87715  
316  577  24.898071  -50.169617  56.00807  
317  586  5.873291  -12.540344  13.847591  
318  509  87.043304  47.788452  99.298904  
319  576  11.633118  92.7522  93.47887  
320  565  -8.628815  17.536743  19.544662  
321  514  7.2846375  114.93988  115.170494  
322  593  104.462585  155.04636  186.95401  
323  541  96.21991  62.22357  114.58641  
324  530  28.332092  33.237335  43.67411  
325  596  35.122314  75.780334  83.523865  
326  519  2.7115479  33.634766  33.74389  
327  529  -41.408234  48.17337  63.52413  
328  597  12.44455  109.794495  110.497505  
329  520  82.79291  80.38861  115.399284  
330  553  -14.078461  49.99063  51.93521  
331  587  -34.435608  143.13339  147.21745  
332  508  34.00482  49.88623  60.373535  
333  577  -5.9484863  120.30524  120.45221  
334  565  17.03537  82.05066  83.800446  
335  512  203.11661  46.55603  208.38383  
336  574  -67.44266  45.12326  81.145676  
337  566  -59.760803  88.82538  107.057465  
338  512  30.580627  65.8593  72.61282  
339  592  -19.831787  -28.9003  35.05035  
340  542  -39.205566  67.349014  77.92924  
341  527  64.48718  6.175415  64.78219  
342  597  22.040558  5.8984222  22.81617  
343  521  -18.663177  93.79823  95.63693  
344  550  31.105957  39.90735  50.59819  
345  587  -74.94064  45.994705  87.929596  
346  522  -86.98941  44.688416  97.79679  
347  551  -40.946747  22.65001  46.793793  
348  587  -374.85858  26.090714  375.76544  
349  510  665.2811  -77.46912  669.7764  
350  575  277.85757  -16.406906  278.34155  
351  566  112.42267  -50.465103  123.2298  
352  512  9.324585  -56.58644  57.34957  
353  592  142.43817  100.48868  174.31755  
354  541  101.58206  18.067032  103.17622  
355  529  20.284515  -2.1307373  20.396118  
356  593  81.469604  103.629166  131.8192  
357  540  3.8008728  -32.139404  32.363373  
358  530  -41.283203  -9.515305  42.365597  
359  596  -33.863647  35.55397  49.10022  
360  517  13.175568  105.77933  106.596725  
361  556  -120.681946  -36.488297  126.07747  
362  582  29.99884  119.14894  122.86741  
363  509  108.14227  3.1987762  108.189575  
364  582  29.432129  -119.77135  123.33461  
365  582  79.22754  113.96715  138.80026  
366  509  145.3825  -23.208313  147.2233  
367  582  135.37811  -180.67912  225.77019  
368  556  901.6795  -1424.2882  1685.7113  
369  518  -46.334045  323.794  327.09235  
370  596  113.40857  91.0734  145.45056  
371  530  79.88721  4.156273  79.995255  
372  542  22.552368  49.462593  54.36136  
373  592  55.728394  8.424789  56.361607  
374  512  -28.60376  -0.2525711  28.604874  
375  543  -52.925964  -23.430817  57.880573  
376  592  165.1095  -61.429306  176.1667  
377  512  31.466553  6.9225235  32.21902  
378  570  53.01349  41.273308  67.185684  
379  571  49.829285  3.7513123  49.970287  
380  512  -16.09259  18.771568  24.725357  
381  591  -24.850128  151.51411  153.53845  
382  544  64.78949  -98.77955  118.131615  
383  527  97.062195  16.667458  98.48286  
384  592  -36.772583  -66.65929  76.12939  
385  540  24.343384  -64.3265  68.778625  
386  529  -80.95627  11.802956  81.81214  
387  596  -14.75415  38.554665  41.281315  
388  518  -10.468018  -32.35939  34.010433  
389  556  28.137207  -39.700867  48.660675  
390  582  23.447693  0.9047775  23.465143  
391  508  30.647705  -41.277157  51.410946  
392  583  -39.77484  -26.769981  47.944447  
393  557  -39.035156  53.86647  66.52323  
394  507  13.443848  15.557106  20.561142  
395  584  -13.120422  13.04668  18.503008  
396  556  27.60431  43.17283  51.24345  
397  517  79.955444  -30.409386  85.54299  
398  595  -20.06781  -33.81028  39.317326  
399  529  64.138306  -123.55079  139.20676  
400  541  9.0  -0.41914117  9.009755  
401  592  64.17212  122.709465  138.47626  
402  512  -19.768738  32.668438  38.184155  
403  569  78.98956  28.053198  83.82323  
404  590  27.41681  -44.086823  51.91656  
405  512  -12.35791  -15.128256  19.534126  
406  570  13.847473  -17.208046  22.087765  
407  571  -39.57953  -55.099686  67.841835  
408  510  -39.348633  26.222057  47.285423  
409  591  30.776245  40.243755  50.662975  
410  545  24.537292  -1.3859787  24.576405  
411  527  26.365479  36.993843  45.427776  
412  597  -9.918579  31.627415  33.146214  
413  546  -14.17041  -39.317966  41.793575  
414  526  -80.664  -12.881142  81.68601  
415  596  23.950012  63.066444  67.460945  
416  521  -36.838074  65.73428  75.35277  
417  548  97.464966  -18.3292  99.173485  
418  589  64.364075  97.81298  117.090195  
419  510  -24.563507  -153.6352  155.58644  
420  574  -16.468018  -20.546196  26.331385  
421  567  50.435608  -4.194565  50.609734  
422  511  53.04431  -42.820244  68.170906  
423  573  31.634521  -8.052513  32.643314  
424  568  165.77386  59.728218  176.20566  
425  512  -52.33539  22.207458  56.852123  
426  592  -27.492523  -0.87836456  27.506552  
427  542  56.346924  -9.812866  57.195  
428  527  23.210632  -50.742264  55.798843  
429  597  79.639404  -5.004669  79.7965  
430  522  113.85742  -92.30794  146.57512  
431  549  -44.809357  -324.32306  327.4039  
432  597  898.5649  1425.0574  1684.698  
433  523  134.00421  179.71758  224.17746  
434  547  144.58624  20.07634  145.97342  
435  589  78.65399  -116.06894  140.20859  
436  510  29.674255  119.03079  122.67392  
437  571  107.599304  -4.1082916  107.677704  
438  570  29.111572  -120.39807  123.867584  
439  510  -120.8988  34.86052  125.82439  
440  591  12.877594  -107.348434  108.11808  
441  544  -34.852783  -37.033356  50.854557  
442  510  -40.969666  7.6740875  41.682194  
443  590  3.8347778  30.36621  30.60739  
444  546  82.07059  -103.64908  132.20708  
445  525  20.527313  1.6042175  20.589903  
446  596  102.529236  -19.123032  104.29734  
447  523  141.73145  -101.22339  174.16652  
448  549  10.334198  54.25087  55.226376  
449  588  112.500885  49.558792  122.93301  
450  509  278.61475  15.462189  279.04346  
451  575  664.48206  77.12236  668.9426  
452  588  -375.13873  -28.21225  376.1981  
453  509  -40.381134  -23.929688  46.938957  
454  575  -86.709045  -46.60028  98.43803  
455  565  -74.80762  -47.28508  88.49892  
456  512  29.249756  -41.28006  50.592407  
457  593  -17.87387  -95.43669  97.09602  
458  538  25.785004  -10.093231  27.690065  
459  532  64.69119  -7.906555  65.17257  
460  597  -39.082184  -69.32948  79.586395  
461  539  -19.226868  26.956512  33.110813  
462  530  31.17279  -66.992645  73.89017  
463  596  -58.84784  -90.24086  107.733376  
464  519  -68.86105  -47.456665  83.63001  
465  556  203.48166  -47.130157  208.86847  
466  582  18.836823  -83.729126  85.82186  
467  509  -3.7364197  -121.28204  121.339584  
468  583  33.830383  -50.877716  61.098583  
469  557  -34.725677  -144.81366  148.919  
470  517  -13.66629  -50.470123  52.287674  
471  583  83.71692  -80.95892  116.45973  
472  555  13.066254  -110.86914  111.63644  
473  518  -40.40735  -48.913696  63.445282  
474  597  3.6072083  -36.808258  36.98459  
475  530  36.147522  -77.109985  85.162155  
476  541  27.888824  -33.388763  43.50398  
477  593  97.696655  -63.165497  116.337944  
478  512  104.26288  -155.89215  187.54495  
479  568  10.526367  -116.12909  116.605194  
480  591  -8.916199  -18.630371  20.65404  
481  511  12.425934  -93.683655  94.504135  
482  571  86.89841  -48.951874  99.737755  
483  567  6.3158264  10.918274  12.61342  
484  511  25.942993  47.772736  54.362423  
485  592  -5.5098267  -185.17474  185.2567  
486  542  44.183228  -86.15723  96.82575  
487  529  1.7228088  -190.20227  190.21007  
488  596  -45.459656  -159.5881  165.93657  
489  519  -6.9810486  -45.975525  46.502514  
490  530  136.97205  -108.59338  174.79665  
491  595  34.32968  -112.12805  117.265625  
492  518  60.975037  -57.151672  83.57194  
493  557  119.52521  -208.3328  240.18498  
494  581  -32.032684  -284.68564  286.48212  
495  509  -16.453339  -173.6366  174.4144  
496  584  119.4989  -179.97095  216.03131  
497  556  103.552124  -329.90656  345.7765  
498  518  7.7710266  -86.676056  87.02372  
499  597  86.00049  -186.23389  205.13203  
500  555  149.01791  -330.22458  362.29077  
501  519  90.350464  -262.80664  277.9038  
502  597  423.94113  -336.73682  541.4035  
503  528  238.69196  -512.39905  565.26685  
504  542  252.96722  -455.60736  521.1242  
505  591  181.55664  -536.62366  566.5049  
506  511  306.1041  -910.8851  960.94293  
507  570  113.35516  -1545.2683  1549.4204  
508  570  1076.0288  367.45184  1137.0396  
509  511  69.8215  -750.22095  753.4631  
510  572  -227.08688  -588.0272  630.3526  
511  569  317.28253  -274.6458  419.64096  
512  512  124.09985  -1617.3293  1622.0835  
513  591  -777.6942  -1677.1267  1848.665  
514  543  666.5563  -1285.3915  1447.9395  
515  528  9066.393  -13011.651  15858.832  
516  598  -1999.9983  2516.5981  3214.5386  
517  519  -2411.1807  903.4929  2574.8965  
518  552  -1261.8547  1989.997  2356.3457  
519  597  209.72165  1279.0842  1296.1635  
520  519  -369.2655  768.95197  853.02057  
521  553  -292.52078  1206.9675  1241.9094  
522  584  569.9016  1421.3911  1531.3851  
523  509  -1357.4744  846.4292  1599.7434  
524  580  -168.73946  441.0975  472.27112  
525  562  -90.875595  450.96658  460.03177  
526  515  63.514862  443.08743  447.61658  
527  595  -62.874756  224.198  232.84753  
528  561  21.492432  279.97562  280.79935  
529  514  -103.01163  163.66293  193.38292  
530  595  -228.12254  23.121796  229.29132  
531  536  38.126953  199.40509  203.01738  
532  534  38.666107  143.43832  148.55847  
533  595  -165.47943  372.89996  407.9679  
534  516  9.905975  360.56906  360.7051  
535  559  -202.42386  -328.4114  385.78424  
536  582  -153.17145  35.871246  157.31573  
537  509  3.1645508  155.03638  155.06866  
538  556  36.446304  85.16272  92.63381  
539  582  -47.90381  71.49512  86.06002  
540  508  -43.029922  119.48477  126.99679  
541  581  -3.4541168  51.16992  51.28637  
542  561  -138.5153  86.48996  163.30035  
543  514  -94.90674  129.68802  160.70554  
544  594  -32.483353  147.76633  151.2946  
545  538  -24.565918  92.173004  95.390495  
546  531  16.362198  70.259155  72.139244  
547  596  11.678482  75.65561  76.55167  
548  540  23.764008  138.61432  140.63661  
549  529  -53.666687  57.79837  78.871826  
550  595  61.0363  50.35617  79.12758  
551  520  -96.190216  97.29654  136.81804  
552  553  -64.14055  62.62143  89.640686  
553  586  33.959442  173.22882  176.52611  
554  510  -5.8436737  26.425812  27.06422  
555  577  -51.46132  33.49298  61.40071  
556  566  -73.66618  58.118164  93.83191  
557  509  -52.131744  67.16049  85.01912  
558  576  -120.83501  47.585083  129.867  
559  566  -53.629974  108.12204  120.69196  
560  513  -5.0721893  76.413605  76.581764  
561  593  -12.050232  62.288483  63.443382  
562  540  -32.55342  58.27942  66.75489  
563  528  -43.44728  63.968994  77.32851  
564  596  -60.275513  63.846375  87.80374  
565  519  -49.604248  183.09631  189.69672  
566  553  -101.40575  -75.06958  126.1688  
567  596  -114.26178  31.846558  118.61685  
568  519  64.70273  34.682556  73.41201  
569  556  26.401436  51.91742  58.244778  
570  586  -46.459846  38.875244  60.57889  
571  509  -22.963142  51.230835  56.141823  
572  579  8.836151  90.13043  90.56253  
573  560  -36.26185  43.760193  56.831997  
574  516  -19.693245  40.81488  45.317528  
575  595  -41.793053  65.03192  77.30337  
576  558  -32.16359  20.529236  38.15686  
577  516  -25.300728  53.40515  59.09515  
578  596  3.740387  43.469543  43.63017  
579  530  15.645226  62.750977  64.67193  
580  540  9.8730545  40.87976  42.055107  
581  592  -69.91695  37.275696  79.232925  
582  511  -35.64277  46.24829  58.38931  
583  568  -45.01081  164.31  170.36357  
584  573  36.43474  69.15167  78.16293  
585  511  231.74197  169.00897  286.82465  
586  570  -9.594326  10.40387  14.152441  
587  571  17.53077  74.099304  76.14483  
588  511  12.2929535  -18.219177  21.978516  
589  590  47.365047  46.26239  66.20918  
590  543  48.6442  17.90979  51.83646  
591  528  -41.331314  138.43909  144.47719  
592  596  44.546272  -23.603577  50.413284  
593  520  19.711506  41.918884  46.322094  
594  553  43.00197  50.92914  66.655426  
595  585  111.365326  -59.516907  126.27152  
596  519  75.47181  -70.56976  103.32515  
597  555  175.67953  101.65735  202.97171  
598  583  891.0992  240.7959  923.06036  
599  508  -906.77527  -103.51355  912.6645  
600  582  -326.62875  -136.57355  354.03204  
601  557  -353.05496  158.42725  386.9716  
602  516  -159.43748  140.3388  212.40361  
603  596  -101.97026  75.99902  127.1762  
604  530  -175.47292  69.25281  188.64436  
605  518  -156.55666  126.67499  201.38654  
606  596  -138.40108  -45.00525  145.53464  
607  530  -70.642296  58.057617  91.43862  
608  541  -81.47497  65.9494  104.82125  
609  592  -50.472527  44.002075  66.96012  
610  510  -59.78603  79.17413  99.21146  
611  569  -102.75995  32.695312  107.835945  
612  572  -34.941597  80.28998  87.56367  
613  511  -50.94596  31.316284  59.801342  
614  591  -91.0188  20.21997  93.2377  
615  572  -64.16345  80.80975  103.185104  
616  512  -146.2449  -4.449341  146.31258  
617  590  -41.194267  70.8147  81.9249  
618  545  291.3827  -246.0437  381.36777  
619  526  -47.934708  31.32019  57.25985  
620  597  -12.735107  52.529663  54.05135  
621  522  -18.602669  17.47638  25.524168  
622  551  -67.033966  47.900696  82.389496  
623  588  -55.295914  61.854492  82.96756  
624  520  -58.72728  70.69629  91.90679  
625  552  -80.788475  34.01819  87.658516  
626  586  7.0994186  14.629028  16.260696  
627  509  -31.215248  13.356018  33.952538  
628  578  -16.991585  33.191895  37.28828  
629  562  -9.076843  16.917358  19.198597  
630  515  -48.945633  49.582153  69.67112  
631  593  -92.25328  101.64044  137.26414  
632  537  4.9501953  -1.2242432  5.099334  
633  532  49.860474  76.0614  90.94726  
634  594  -7.585129  -22.13733  23.400759  
635  537  -34.31987  -31.247131  46.413757  
636  533  -116.514206  36.942383  122.23052  
637  596  -69.61656  29.003052  75.41646  
638  518  -74.6523  7.669861  75.04527  
639  558  -56.838028  11.966797  58.084126  
640  583  -13.318695  41.1073  43.211082  
641  509  -42.30954  14.408539  44.69567  
642  580  -52.80664  20.183777  56.53252  
643  562  -29.429352  52.022766  59.770016  
644  508  -47.21321  30.347595  56.12543  
645  579  -44.96797  31.126831  54.690018  
646  563  -47.990585  11.486572  49.3461  
647  514  -49.19594  -7.263672  49.72928  
648  594  -93.78575  59.898743  111.281746  
649  538  130.51749  -112.444275  172.27458  
650  531  -36.851166  -3.6401672  37.030518  
651  598  30.209152  156.86127  159.7437  
652  519  -36.971893  27.496796  46.075966  
653  530  -18.807556  11.242096  21.911386  
654  596  -38.590637  -1.791748  38.63221  
655  518  -30.413666  37.231415  48.074623  
656  553  -58.395172  53.850037  79.43439  
657  585  -37.912888  25.475525  45.677013  
658  508  -33.385117  64.25427  72.40979  
659  576  -28.777252  37.036926  46.90271  
660  566  -41.38228  6.3529663  41.86709  
661  513  -34.386307  45.11859  56.728348  
662  594  -40.537582  33.960938  52.883274  
663  566  -62.808777  29.157684  69.24675  
664  512  -64.47827  5.3674927  64.701294  
665  593  -63.17801  63.827515  89.80764  
666  541  -118.94  126.45297  173.60034  
667  529  18.387848  107.30948  108.87349  
668  596  -6.275116  261.39285  261.46817  
669  519  -40.999878  -134.29636  140.41547  
670  553  -34.221863  -23.62555  41.584885  
671  585  -10.382751  -3.3824158  10.91981  
672  510  -2.2350159  23.90915  24.013386  
673  557  -37.600098  37.184082  52.881218  
674  582  -58.428223  32.2753  66.74992  
675  507  66.47824  -1.472229  66.49454  
676  583  -21.967682  -16.826752  27.671621  
677  556  -21.834106  17.245575  27.823338  
678  517  45.88025  3.4490051  46.009705  
679  597  -5.084259  -2.0497742  5.481903  
680  529  -54.27353  101.1145  114.75957  
681  541  5.7417297  238.81473  238.88374  
682  597  -207.55179  -643.3026  675.9556  
683  528  -26.798645  -139.53506  142.08519  
684  543  -215.52002  -104.368256  239.46107  
685  591  -94.372894  2.3054504  94.401054  
686  511  -62.324097  14.981812  64.09951  
687  570  -57.57724  -22.450134  61.799248  
688  571  -51.560516  -4.566925  51.762375  
689  512  32.945496  -48.77829  58.86193  
690  591  -43.199677  11.4921875  44.702152  
691  542  -62.646515  -10.129974  63.460243  
692  512  -29.404114  27.284515  40.112923  
693  592  -24.150726  38.834778  45.7318  
694  541  -48.445892  11.308777  49.748295  
695  531  -23.884521  1.7028503  23.945147  
696  596  2.528534  9.371704  9.706819  
697  517  14.12442  20.249115  24.68858  
698  557  -27.155762  42.891388  50.76521  
699  583  25.629059  -77.32736  81.46391  
700  509  10.586395  77.84512  78.56166  
701  560  265.77924  140.23495  300.507  
702  579  -172.35281  -13.483673  172.87944  
703  508  -55.637726  21.561249  59.669456  
704  584  -57.37561  29.117218  64.341064  
705  553  -59.96521  7.8528748  60.47722  
706  520  -28.221008  3.1635132  28.397766  
707  597  -40.67459  1.3197021  40.695995  
708  526  -26.893097  -4.360077  27.244246  
709  544  -42.225372  7.491516  42.884785  
710  591  -51.976685  24.702728  57.548244  
711  524  -52.552246  51.13272  73.32322  
712  548  -45.42459  24.974792  51.83757  
713  588  -38.27127  -18.99179  42.724445  
714  510  -77.71088  34.939514  85.20417  
715  574  51.56314  23.979584  56.866318  
716  567  -18.953796  57.832825  60.859524  
717  512  14.129059  -72.39929  73.76509  
718  593  19.17575  0.5390625  19.183327  
719  538  -87.01706  -53.932373  102.375145  
720  532  -22.592926  -5.391632  23.227354  
721  594  -0.37368774  -13.248505  13.253774  
722  535  -12.94043  18.109589  22.25785  
723  534  -30.123322  6.729309  30.865808  
724  595  -12.642426  -0.9796448  12.680325  
725  516  -45.536896  6.21994  45.95973  
726  559  -31.371368  12.82016  33.889812  
727  580  -28.983398  -5.775299  29.553198  
728  510  -26.48169  -3.2266235  26.677536  
729  585  -31.943237  7.339813  32.77565  
730  580  -1.8772888  15.585815  15.698467  
731  509  2.366211  23.60794  23.726225  
732  585  158.81372  132.85373  207.05534  
733  555  -103.099335  -24.207489  105.903145  
734  520  -149.22723  78.858154  168.78203  
735  596  -51.52127  -38.59326  64.372986  
736  529  -33.74408  13.788361  36.45246  
737  540  -62.503113  -13.712952  63.98972  
738  592  -62.465576  -17.909424  64.98227  
739  513  -52.597626  0.24832153  52.598213  
740  541  -47.014862  -56.014694  73.13032  
741  592  -30.67929  -4.9733887  31.079792  
742  512  -62.679108  32.931763  70.80376  
743  568  -57.970734  0.61642456  57.97401  
744  574  -49.1297  30.913498  58.046288  
745  510  -66.260376  -34.653946  74.77522  
746  587  -45.777832  -21.720032  50.669216  
747  551  -27.513123  -16.976166  32.328968  
748  521  -87.6803  34.166733  94.10207  
749  587  -155.45175  6.8784943  155.60387  
750  550  -47.176483  96.57388  107.48086  
751  520  -144.23633  75.387436  162.74945  
752  597  250.33582  -145.08694  289.34103  
753  528  48.288483  -9.543823  49.222576  
754  541  20.680176  31.029404  37.28932  
755  593  48.26477  20.825104  52.56589  
756  513  -9.17865  -23.448349  25.1808  
757  566  -5.7584534  -39.787872  40.20242  
758  576  37.864746  23.377487  44.499954  
759  513  -19.252228  -49.779312  53.37254  
760  565  -15.106018  -16.281143  22.209623  
761  577  13.048706  1.5135803  13.136196  
762  509  -24.663086  -10.935181  26.97862  
763  586  -54.37201  -48.800186  73.06007  
764  552  -19.42566  -9.310547  21.541645  
765  519  392.05002  -292.74323  489.28705  
766  596  -0.064086914  11.793671  11.793844  
767  529  -119.418945  -113.7632  164.93317  
768  539  -65.47357  35.213318  74.342224  
769  596  -76.854065  37.473915  85.50346  
770  531  17.130646  27.527336  32.42242  
771  538  -2.4678955  -6.566284  7.0147414  
772  594  -23.908264  50.682236  56.038326  
773  513  -48.97107  5.3177643  49.25895  
774  563  -19.119629  21.050148  28.437105  
775  577  -46.302612  1.1860199  46.3178  
776  509  -37.73889  0.44387817  37.7415  
777  586  -11.320984  4.0247345  12.015122  
778  577  -14.929382  33.102608  36.313484  
779  509  5.817993  42.60386  42.999275  
780  588  0.73498535  61.214745  61.21916  
781  551  -15.808105  0.22658539  15.80973  
782  521  24.95404  21.534706  32.961308  
783  597  -81.79639  83.82927  117.12385  
784  525  -42.53766  180.88818  185.82246  
785  547  -34.19098  -205.66147  208.4842  
786  589  -8.769165  -24.93565  26.432648  
787  510  -9.20929  -19.317574  21.40046  
788  549  -20.174927  -23.101929  30.67127  
789  587  1.6845703  -17.912968  17.992004  
790  509  15.79071  -30.621777  34.45344  
791  577  -15.868713  18.667503  24.500853  
792  565  -24.804077  41.69195  48.512486  
793  514  2.3657837  7.1700134  7.5502334  
794  595  8.402344  -5.049822  9.803065  
795  535  25.747803  2.020691  25.826973  
796  534  54.80249  -7.765873  55.349995  
797  595  84.4848  -5.994014  84.69717  
798  533  124.2749  83.35449  149.6403  
799  536  252.62836  26.105572  253.97359  
