n v(n)    Re(T)       Im(T)        Mod(T) 
   
0  584  441343.0  0.0  441343.0  
1  580  -552.2746  -13.065308  552.4291  
2  575  -540.45233  5.42155  540.47955  
3  570  -567.3925  42.989235  569.01874  
4  564  -619.3069  39.596405  620.5714  
5  559  -621.7023  73.421524  626.0227  
6  554  -623.0799  80.55878  628.2661  
7  548  -662.8518  95.961075  669.76196  
8  543  -737.30566  111.01239  745.6161  
9  537  -790.1038  145.51631  803.3922  
10  531  -861.4087  193.0065  882.76636  
11  527  -1007.69635  231.31776  1033.9052  
12  523  -1146.6913  259.02832  1175.5835  
13  518  -1421.5236  339.79733  1461.5715  
14  514  -1890.8623  528.91315  1963.4432  
15  512  -2973.308  877.3719  3100.0552  
16  508  -7268.732  2292.2637  7621.61  
17  509  13561.287  -4516.126  14293.491  
18  508  3378.9263  -1185.0726  3580.7178  
19  509  1894.5847  -702.5244  2020.6415  
20  509  1277.521  -494.27655  1369.8063  
21  512  972.8164  -397.15396  1050.7631  
22  513  758.27686  -323.83005  824.52997  
23  518  637.1231  -293.1954  701.34827  
24  521  518.69403  -229.10167  567.0371  
25  525  470.62692  -236.67442  526.787  
26  528  399.0318  -215.04596  453.28925  
27  533  370.09222  -179.5615  411.35214  
28  540  311.9828  -169.99924  355.29285  
29  545  291.18896  -165.26453  334.81842  
30  551  268.88263  -170.54697  318.40875  
31  556  230.09552  -134.65736  266.60187  
32  563  217.46695  -153.81613  266.36682  
33  568  217.38062  -106.70116  242.15588  
34  576  187.51361  -104.59383  214.71196  
35  579  173.7164  -116.77957  209.31998  
36  582  166.42575  -127.87532  209.88004  
37  585  174.57031  -105.6676  204.05989  
38  590  133.14362  -87.059326  159.08032  
39  593  129.8198  -110.69299  170.60515  
40  594  128.31293  -92.61424  158.24539  
41  596  125.29727  -101.81976  161.45177  
42  596  112.37656  -86.4727  141.7957  
43  596  93.50058  -85.899155  126.96859  
44  596  117.42685  -81.01001  142.65935  
45  593  100.86902  -62.10582  118.455444  
46  591  109.85693  -79.67177  135.70607  
47  589  107.14581  -61.854584  123.718285  
48  584  82.68054  -81.863815  116.35186  
49  580  81.23685  -80.83472  114.60226  
50  576  76.302155  -58.898895  96.39034  
51  571  73.40109  -75.21362  105.094284  
52  565  76.64221  -75.40207  107.51512  
53  560  72.256744  -68.3875  99.48812  
54  554  64.51987  -55.87497  85.35119  
55  547  50.716064  -56.181274  75.68656  
56  541  72.44858  -60.033615  94.089485  
57  537  52.710114  -49.349182  72.20594  
58  532  53.105682  -62.024323  81.65311  
59  527  41.890503  -55.722595  69.712425  
60  523  60.203186  -51.559418  79.2641  
61  518  45.40341  -31.768906  55.414196  
62  514  58.818024  -25.865845  64.254196  
63  512  49.322174  -31.098938  58.307983  
64  512  55.333557  -29.215576  62.572777  
65  509  56.708496  -61.92627  83.968544  
66  509  42.093597  -57.444427  71.2161  
67  509  59.27008  -22.448578  63.37887  
68  509  49.028687  -34.821594  60.136143  
69  512  42.060364  -57.85446  71.52771  
70  514  40.431213  -35.34305  53.701153  
71  517  70.953064  -49.063324  86.264404  
72  520  56.998993  -43.56659  71.74213  
73  525  62.502106  -38.87271  73.604355  
74  529  72.650024  -56.414856  91.98186  
75  534  56.95984  -52.548218  77.4967  
76  540  46.829163  -49.672028  68.26625  
77  545  61.391266  -38.15085  72.27984  
78  552  47.381073  -50.434937  69.200066  
79  557  51.780823  -14.061829  53.656208  
80  562  21.217102  -18.215485  27.963715  
81  568  44.974457  -45.263367  63.808105  
82  573  51.690155  -42.119263  66.67761  
83  578  39.662445  -48.42688  62.596104  
84  583  17.905487  -48.77014  51.953182  
85  587  22.356049  -44.76416  50.036217  
86  589  31.624664  -39.178314  50.349377  
87  593  44.62915  -27.938538  52.652855  
88  598  39.698395  -19.121185  44.06339  
89  596  31.990875  -24.86856  40.51989  
90  596  31.439789  -1.7944031  31.490955  
91  596  24.491821  -20.369904  31.855648  
92  595  16.27121  -16.517426  23.18572  
93  593  43.59857  -47.31436  64.33882  
94  591  26.938751  -45.70642  53.054436  
95  588  31.44516  -22.44696  38.63501  
96  584  43.23871  -33.065186  54.432457  
97  581  19.945099  -29.27539  35.42394  
98  576  33.12625  -52.532074  62.10449  
99  570  36.41812  -17.20633  40.278248  
100  566  36.78531  -30.647736  47.87946  
101  559  27.884216  -43.441956  51.62105  
102  554  18.829346  -27.903961  33.66267  
103  548  30.574768  -47.20462  56.24138  
104  542  8.143097  -39.958496  40.779793  
105  537  31.130249  -26.586823  40.93839  
106  531  51.493744  -10.56778  52.566944  
107  526  15.65918  -16.74936  22.92926  
108  523  14.974152  -27.24884  31.092194  
109  519  20.487244  -47.375366  51.61543  
110  515  47.22113  -17.404144  50.32633  
111  512  35.598206  -22.8414  42.296124  
112  510  42.69998  -59.483063  73.22243  
113  509  22.81424  -9.416748  24.681261  
114  509  25.797455  -14.89328  29.787891  
115  509  35.655273  -30.400421  46.855995  
116  509  18.18164  -19.045044  26.33032  
117  512  34.938934  -14.95639  38.00556  
118  513  16.92279  3.99823  17.388693  
119  517  42.089783  -17.509674  45.586605  
120  521  22.705292  -19.01059  29.61305  
121  525  16.39621  -40.162994  43.380894  
122  529  35.457306  -15.700989  38.778107  
123  534  31.490448  -26.318085  41.0401  
124  540  33.095673  -2.5848083  33.196457  
125  545  49.65329  -30.155579  58.093098  
126  551  21.06604  -36.96054  42.542446  
127  558  30.512268  -15.750427  34.337654  
128  563  1.4519348  -28.942566  28.978962  
129  567  8.215027  -22.63733  24.081846  
130  574  16.314209  -22.611847  27.882772  
131  578  34.589233  -18.841583  39.388073  
132  582  0.55874634  -4.1760864  4.2132998  
133  587  18.874329  -7.819916  20.430159  
134  589  46.178253  -26.309204  53.14702  
135  592  47.21353  4.605316  47.437607  
136  598  41.973694  -25.714691  49.224346  
137  595  25.578186  -10.093414  27.497646  
138  597  25.769287  -25.919556  36.549686  
139  597  35.809296  -8.586548  36.82437  
140  596  28.867508  -26.44571  39.149822  
141  594  26.071304  -35.81726  44.301117  
142  592  25.464554  -44.840454  51.56656  
143  588  13.119064  -6.014099  14.431883  
144  585  24.666977  -17.692749  30.356106  
145  580  24.037735  -11.268707  26.548002  
146  575  32.20482  -12.147186  34.419537  
147  571  18.86139  -43.357788  47.28266  
148  565  18.616623  -10.816864  21.530983  
149  560  24.260803  -25.934937  35.513485  
150  554  -24.693054  -6.5550537  25.548302  
151  547  4.431732  -23.065125  23.487022  
152  542  19.110474  -11.176086  22.138544  
153  538  -1.7020416  -23.655579  23.716732  
154  532  17.316956  -19.460693  26.049868  
155  527  1.989563  -11.440857  11.61256  
156  522  19.777954  -10.304443  22.301323  
157  519  -8.929855  -9.807434  13.263788  
158  514  2.2542572  6.3550415  6.7430134  
159  513  -15.152023  -5.3966064  16.084377  
160  511  29.171173  12.71405  31.821445  
161  508  -19.223679  9.501892  21.44378  
162  508  20.77118  -28.901794  35.59151  
163  508  37.22467  -16.456238  40.699924  
164  509  15.895462  -20.487  25.930347  
165  512  17.884201  -7.2126465  19.283852  
166  514  26.876175  -31.74878  41.59704  
167  516  -6.873749  -34.38446  35.064793  
168  520  5.557266  -33.67816  34.133587  
169  524  15.917557  -25.528809  30.084692  
170  528  13.60704  -9.982361  16.875992  
171  533  31.91922  -13.157288  34.52464  
172  539  1.2337494  -38.779785  38.799404  
173  546  11.491974  -28.047241  30.310284  
174  551  19.21653  -32.738342  37.961483  
175  556  9.357948  -9.994751  13.691832  
176  562  15.922562  -50.405884  52.860962  
177  567  28.847275  -29.574219  41.31343  
178  573  25.619507  -5.7803955  26.263514  
179  577  -7.4789124  -5.7730713  9.447883  
180  582  14.59388  -2.8130493  14.862522  
181  586  15.809708  -8.482056  17.941353  
182  589  19.095016  -8.7873535  21.019924  
183  593  34.378952  -5.788513  34.86286  
184  594  25.637283  -6.5250244  26.454607  
185  595  13.014183  -13.636536  18.850042  
186  597  -7.146641  -22.77594  23.87086  
187  596  15.151035  7.430847  16.87517  
188  596  23.393032  -8.525818  24.898264  
189  594  12.957962  -16.357666  20.868206  
190  591  24.554398  -16.219604  29.427776  
191  588  10.445103  -30.440979  32.183125  
192  584  24.64484  -11.039368  27.004366  
193  581  2.0236225  -27.24347  27.318521  
194  575  24.095404  -17.187744  29.597416  
195  571  27.03439  -23.48883  35.81317  
196  566  -5.0026855  -28.674805  29.107925  
197  559  9.259032  0.37249756  9.266522  
198  554  30.276947  -22.929993  37.97997  
199  548  28.339958  11.309143  30.513111  
200  543  26.816431  -30.439697  40.56718  
201  537  21.373444  -11.23053  24.144335  
202  532  16.603249  -14.27179  21.894106  
203  527  10.116516  -17.486267  20.201818  
204  522  21.127718  -1.0112305  21.151903  
205  518  17.024454  -4.1349487  17.519413  
206  515  21.927816  -10.644775  24.374994  
207  512  22.776964  -21.1651  31.092628  
208  510  45.9795  -19.108093  49.791904  
209  509  30.754986  0.842041  30.76651  
210  509  19.252216  -17.424683  25.96666  
211  508  4.6243515  -5.9838257  7.5624595  
212  509  21.995594  -9.619202  24.006983  
213  511  14.978252  -20.963379  25.764536  
214  513  15.751369  -17.061035  23.220348  
215  517  12.9333725  -9.701904  16.167841  
216  520  3.7201996  1.1731567  3.9007924  
217  525  3.764244  -1.8171387  4.1798954  
218  529  32.58667  -4.7280884  32.92789  
219  533  -7.4560013  -2.6923218  7.927203  
220  539  16.149727  -17.745056  23.993763  
221  545  14.946671  -17.738525  23.196083  
222  551  11.512772  -9.871582  15.165489  
223  556  9.463402  -7.438965  12.0372  
224  563  17.45691  0.70495605  17.471138  
225  567  22.171585  -3.9546509  22.521511  
226  574  16.94522  -16.151794  23.40985  
227  578  21.600342  -12.278259  24.846136  
228  581  26.36161  -9.67865  28.082214  
229  586  11.817947  -27.493652  29.92599  
230  590  29.345718  -27.93396  40.51515  
231  592  12.338776  -3.3825684  12.794028  
232  594  7.465042  -13.213196  15.176146  
233  597  -0.25376892  -17.395813  17.397663  
234  595  37.69699  -3.4595337  37.855404  
235  597  15.495316  7.826233  17.359571  
236  596  45.598648  7.429199  46.19989  
237  593  -0.73361206  -15.518921  15.536251  
238  592  33.031693  -15.3671875  36.431347  
239  589  -3.77005  -6.3406982  7.3768377  
240  584  8.575211  -12.952515  15.533895  
241  580  39.170456  -28.608948  48.505634  
242  577  -10.347778  -23.322632  25.515127  
243  570  -11.242447  -6.704956  13.090036  
244  565  4.7725983  8.30957  9.582623  
245  560  16.675476  2.9624634  16.936579  
246  554  4.395294  -5.472412  7.0189676  
247  549  10.251923  -14.548645  17.797894  
248  543  8.837296  -14.571533  17.04193  
249  538  4.3870087  -3.836731  5.828066  
250  532  7.717926  23.780182  25.00127  
251  528  19.43341  22.128143  29.450163  
252  523  7.289032  -0.50460815  7.3064775  
253  518  28.026382  3.3729553  28.228619  
254  515  15.600311  -11.084137  19.13708  
255  512  28.589264  -12.445496  31.180706  
256  511  -6.2901917  -26.345459  27.08597  
257  510  20.020233  -14.806793  24.90082  
258  509  39.09781  -17.203186  42.7152  
259  509  1.6817017  -16.967987  17.05112  
260  510  14.829651  -0.33169556  14.83336  
261  511  18.799591  12.883789  22.790714  
262  513  12.88208  9.208557  15.834946  
263  517  -8.764496  0.22729492  8.767443  
264  519  16.57788  35.614044  39.28341  
265  525  28.012177  -15.607758  32.066868  
266  528  15.652313  -40.82016  43.718193  
267  534  13.579956  -13.855225  19.40058  
268  539  14.634674  -20.221283  24.96145  
269  545  0.90252686  8.541565  8.589114  
270  551  -1.3487854  17.842255  17.893162  
271  556  37.80374  3.5171814  37.967007  
272  563  39.54657  -27.269287  48.036915  
273  567  18.165619  -7.6620483  19.715393  
274  573  19.599823  13.231171  23.647768  
275  578  22.706085  0.6298218  22.714817  
276  582  16.257446  -14.235443  21.609081  
277  585  16.205383  -27.052612  31.535032  
278  589  20.653625  -1.8139648  20.733131  
279  592  9.119385  -27.82602  29.282257  
280  595  0.9806824  0.658905  1.1814795  
281  596  24.846222  -17.78894  30.557833  
282  597  31.502197  5.1427307  31.919212  
283  596  26.073273  -25.3797  36.38605  
284  596  2.5684814  -13.250946  13.49758  
285  593  2.0630188  -13.055634  13.217625  
286  592  36.98236  -11.669189  38.779697  
287  588  14.610718  22.499329  26.827091  
288  585  23.76419  9.710846  25.671722  
289  581  15.150665  -22.032532  26.739017  
290  576  34.681335  -29.42575  45.48263  
291  571  12.738831  -1.5153503  12.828643  
292  565  -1.1120605  -4.0708313  4.2199936  
293  560  9.215149  16.204742  18.641691  
294  555  -3.3833008  -20.357086  20.636318  
295  550  33.91086  -8.53363  34.968117  
296  543  3.5379944  -20.492523  20.795694  
297  537  19.8432  -23.220612  30.54422  
298  531  -8.367645  12.205261  14.798172  
299  527  8.8715515  3.786377  9.645781  
300  523  8.712891  -6.7866516  11.044143  
301  519  15.7873535  -0.38153076  15.791963  
302  516  10.98938  -23.644196  26.073252  
303  512  1.0855408  -17.998322  18.031029  
304  510  9.055725  4.3616333  10.051368  
305  509  22.62616  4.6470947  23.098454  
306  508  36.368073  -14.223419  39.05051  
307  508  10.965485  1.7616882  11.106097  
308  510  8.421082  -8.932312  12.276026  
309  511  7.8988647  -1.1460266  7.981569  
310  513  19.073486  1.4573059  19.129078  
311  516  28.74826  -18.39441  34.129414  
312  520  24.920502  -7.6591187  26.070932  
313  524  10.22879  -8.573151  13.346425  
314  528  19.79834  -8.283417  21.461344  
315  533  29.49408  -5.2287292  29.95397  
316  539  4.9465637  -9.938629  11.101569  
317  545  7.641815  4.520508  8.878757  
318  550  11.683624  -5.246643  12.80759  
319  557  22.01001  1.704071  22.075878  
320  562  16.344788  -8.085236  18.235216  
321  567  13.010895  -15.082397  19.918888  
322  572  4.235901  3.0679321  5.230207  
323  578  35.184723  3.1036987  35.32135  
324  582  8.207397  14.114655  16.327427  
325  586  2.7160645  -4.244507  5.039131  
326  589  6.6236267  0.09085083  6.6242495  
327  592  43.829468  -3.0115051  43.932804  
328  596  17.782074  -10.772186  20.790434  
329  596  23.331573  -8.936188  24.98435  
330  596  12.037994  -14.9010315  19.156044  
331  595  12.751282  -0.8076782  12.776835  
332  596  17.358887  -15.877991  23.525337  
333  595  1.7499695  -1.2623291  2.157746  
334  591  -1.4202576  20.476349  20.525545  
335  589  11.7569275  12.421143  17.102928  
336  585  28.918854  -10.308594  30.701258  
337  581  25.282043  -19.15561  31.71938  
338  576  9.498566  -1.809967  9.669474  
339  571  5.477234  -14.457642  15.460384  
340  565  19.918121  8.0504  21.483494  
341  560  7.49411  2.9754791  8.063198  
342  555  3.0498657  -3.8786469  4.934124  
343  548  0.06817627  4.2729034  4.2734475  
344  543  30.759613  -9.659714  32.24072  
345  539  -0.17086792  3.457489  3.4617085  
346  532  16.717072  27.369019  32.070606  
347  527  34.884094  2.5225677  34.97518  
348  523  -4.234894  3.383316  5.4204383  
349  519  -5.3465576  -3.5401154  6.412339  
350  516  19.390503  -17.011185  25.794806  
351  513  4.4137573  -30.16359  30.484806  
352  510  13.351074  1.2707977  13.411418  
353  510  4.852661  -0.27130127  4.860239  
354  508  20.532166  -23.189056  30.972603  
355  509  -17.10849  -9.466537  19.552896  
356  509  32.26892  -6.8978577  32.997932  
357  511  0.87268066  -4.046753  4.1397805  
358  512  5.218994  -12.48262  13.529735  
359  517  7.562866  6.3438263  9.871224  
360  520  6.498535  12.713364  14.277975  
361  524  11.300354  -12.197052  16.627268  
362  528  -7.069641  -7.1943207  10.08653  
363  533  1.2962036  4.441925  4.627185  
364  538  6.2946777  -13.165939  14.593318  
365  544  12.818665  -1.4215393  12.897245  
366  550  10.696533  -5.40567  11.98487  
367  555  -11.504639  14.0894165  18.189787  
368  560  2.0037842  -0.4593811  2.055768  
369  567  16.534668  -6.853653  17.89882  
370  572  7.429199  12.420929  14.473164  
371  577  22.688477  2.1556854  22.790655  
372  582  36.93683  -21.576439  42.777004  
373  586  14.602661  10.336754  17.890953  
374  589  23.235962  8.288414  24.669975  
375  591  20.893188  -6.384781  21.846985  
376  594  27.828613  0.6368637  27.8359  
377  596  47.016357  -14.517181  49.20657  
378  596  23.164001  -12.776352  26.45385  
379  597  13.381531  -13.463898  18.982674  
380  595  19.631042  11.243095  22.622667  
381  593  15.563721  -0.91095734  15.590358  
382  592  19.985352  -1.8653336  20.072212  
383  589  30.31543  -26.072166  39.984787  
384  586  26.501282  -21.997696  34.441494  
385  582  -4.0548706  2.3314514  4.6773543  
386  577  20.73645  -26.60426  33.7311  
387  571  16.721313  4.615185  17.346535  
388  566  26.646301  2.1156387  26.730158  
389  561  13.703125  -0.8570862  13.729903  
390  555  14.804443  -13.96767  20.353558  
391  549  4.5754395  14.128483  14.850882  
392  543  19.252563  0.5334778  19.259953  
393  538  0.38946533  -0.63392067  0.7440018  
394  532  5.590454  -1.1960049  5.7169576  
395  527  6.670044  -20.144592  21.220133  
396  524  13.819641  -3.2647743  14.200044  
397  519  20.17096  3.7433214  20.515362  
398  515  -5.3810425  8.755011  10.276469  
399  512  22.594604  -1.5350385  22.646688  
400  511  15.000732  -0.50333214  15.009174  
401  509  22.849243  0.5728698  22.856422  
402  508  -5.0161133  -9.718498  10.936664  
403  508  19.29187  -6.008396  20.205868  
404  510  13.604675  2.4634914  13.825917  
405  511  7.2855225  18.333088  19.727669  
406  513  6.0495605  -0.4482479  6.0661445  
407  516  -0.2565918  -0.46889114  0.53450745  
408  519  19.721619  -0.97229385  19.745571  
409  524  4.7871094  -15.101429  15.842019  
410  528  15.776733  13.510361  20.771017  
411  534  12.046143  -1.807724  12.181027  
412  538  27.362244  -2.6464615  27.48993  
413  544  17.243774  -5.202484  18.011484  
414  551  20.906982  25.670734  33.107227  
415  556  -4.463318  -3.4893494  5.6654005  
416  562  26.33905  21.280144  33.861336  
417  567  30.504578  24.372627  39.04554  
418  572  19.782593  0.9979248  19.807747  
419  577  15.571777  -1.0111847  15.604574  
420  582  19.154907  -12.939018  23.115551  
421  586  13.863098  12.821205  18.88303  
422  588  22.963562  11.131477  25.519306  
423  592  47.006836  13.335632  48.861862  
424  594  28.615417  -2.5619583  28.729876  
425  597  21.480042  5.341736  22.13428  
426  596  24.238403  -9.300499  25.9615  
427  596  15.071472  -11.752853  19.112268  
428  595  37.137573  20.301056  42.324135  
429  594  22.159546  -3.182579  22.386923  
430  592  7.4417114  -13.956619  15.816646  
431  590  16.746216  5.5146027  17.63084  
432  584  1.4384155  -0.71673584  1.6070936  
433  581  -11.967468  -14.441925  18.756052  
434  577  10.193054  2.6456757  10.530809  
435  571  12.244873  -0.38931274  12.2510605  
436  567  6.948059  12.8177185  14.5797615  
437  561  0.9467163  -5.143936  5.23033  
438  554  -7.8690186  6.199829  10.01795  
439  549  11.376343  11.050293  15.859702  
440  543  6.0803223  -14.015274  15.277376  
441  538  6.6297607  -7.528946  10.031887  
442  533  5.5  10.903717  12.212332  
443  527  0.9574585  2.4582062  2.6380873  
444  523  32.60736  7.0492554  33.360634  
445  520  -16.907318  9.051788  19.177912  
446  515  21.23108  22.194992  30.714434  
447  512  4.008606  -0.6177826  4.055931  
448  510  14.436401  -3.3969269  14.83067  
449  508  4.325012  29.332382  29.649527  
450  509  20.085815  15.793961  25.551697  
451  509  -5.4611816  2.1310883  5.8622556  
452  510  -3.839447  -4.3610992  5.810382  
453  511  35.71225  -3.427536  35.876354  
454  514  17.103577  -28.775162  33.474503  
455  516  0.037506104  -4.4172363  4.4173956  
456  520  28.85852  8.577133  30.106169  
457  524  0.6987915  -5.6550446  5.6980557  
458  530  6.832245  -0.17951965  6.834603  
459  534  7.7716064  -4.550934  9.006046  
460  538  20.01007  -9.670731  22.224445  
461  545  6.2031555  12.752899  14.181522  
462  549  10.045593  1.0039673  10.095637  
463  555  26.009216  18.109558  31.69283  
464  561  27.275665  8.3593445  28.527891  
465  567  11.952515  -13.140869  17.763588  
466  573  0.32247925  -21.87024  21.872618  
467  577  3.7435303  0.6197815  3.7944891  
468  581  17.02246  15.095428  22.75162  
469  585  12.269409  -0.5309143  12.28089  
470  589  12.308136  14.662781  19.14386  
471  592  24.108826  8.496429  25.562176  
472  594  18.281616  9.864471  20.773188  
473  596  44.704163  2.6447754  44.78233  
474  597  7.4249573  -3.0379333  8.0224085  
475  597  3.5209045  3.109314  4.697297  
476  595  7.6748962  -14.119568  16.070663  
477  595  36.602905  -3.8770752  36.807667  
478  592  3.6706848  -3.793396  5.2786155  
479  589  16.020538  14.009003  21.281677  
480  585  15.968353  7.230377  17.529024  
481  581  22.580353  -2.4586182  22.71381  
482  576  11.433502  4.1879272  12.176358  
483  571  8.091522  -5.8602295  9.9907465  
484  567  5.92511  7.989563  9.946861  
485  561  28.855957  4.4524536  29.197441  
486  555  20.870941  7.658539  22.231722  
487  549  10.624359  8.713226  13.740354  
488  544  25.442993  6.6535034  26.298574  
489  538  29.821838  17.088013  34.37066  
490  533  18.729279  -2.471405  18.891632  
491  528  8.594482  0.2895813  8.5993595  
492  523  8.459656  7.0937195  11.040228  
493  519  11.260651  -1.7437134  11.394858  
494  516  37.390472  12.179199  39.324043  
495  513  22.647858  -6.2133484  23.484701  
496  511  8.977203  -5.7623596  10.667473  
497  509  1.9031677  16.590332  16.699137  
498  508  12.019318  24.418365  27.216183  
499  509  16.084595  -0.49154663  16.092104  
500  509  9.335968  5.4548035  10.812733  
501  511  8.541077  -4.7652283  9.780459  
502  513  -5.1466064  -15.420166  16.256355  
503  515  19.369537  21.725525  29.106312  
504  519  3.860443  19.411316  19.791468  
505  524  34.386078  7.835022  35.267406  
506  528  -2.2646484  18.90924  19.04437  
507  533  9.528687  -17.740479  20.137539  
508  539  -0.124694824  2.2669067  2.2703335  
509  544  12.313385  1.3311157  12.385124  
510  550  34.04294  29.26587  44.89335  
511  555  19.064362  18.413269  26.504686  
512  561  24.056335  -11.058105  26.476196  
513  566  15.168945  -23.031525  27.578035  
514  572  37.545166  10.66095  39.02942  
515  578  3.59552  10.481354  11.080909  
516  581  3.8611145  12.938965  13.502778  
517  585  26.808075  24.664581  36.428207  
518  589  32.378754  -6.1028137  32.94887  
519  591  25.02774  15.717407  29.553759  
520  594  -0.6729126  2.1174927  2.221843  
521  596  9.79834  26.336945  28.10057  
522  595  21.571503  1.2433472  21.607306  
523  596  15.950714  23.568298  28.458565  
524  596  16.168732  12.618134  20.509636  
525  595  23.895569  -3.369049  24.131903  
526  592  20.338745  -13.74884  24.54985  
527  588  19.09436  7.086975  20.367126  
528  585  39.792664  26.679993  47.90906  
529  582  40.121033  -3.962738  40.316257  
530  577  -2.127411  -16.83023  16.964155  
531  572  1.5013733  -10.077484  10.18871  
532  566  16.265442  19.381653  25.302433  
533  561  13.728821  12.478363  18.55236  
534  555  15.54538  39.57312  42.516945  
535  550  28.450409  14.972412  32.14963  
536  544  16.939941  -36.487885  40.22844  
537  538  -7.9597473  -1.3994141  8.081828  
538  533  13.466095  -10.627686  17.154692  
539  528  19.41861  -14.175934  24.042452  
540  523  19.70317  0.2715149  19.705042  
541  519  2.5926056  16.26831  16.473602  
542  516  40.15341  16.003448  43.22507  
543  513  21.29837  14.332855  25.671995  
544  511  -5.40419  25.176514  25.749992  
545  509  28.986069  10.059021  30.681852  
546  509  15.9405365  9.543152  18.578817  
547  508  26.856354  -3.2575684  27.053198  
548  509  7.8087006  -1.4624939  7.9444757  
549  510  21.090973  -23.549866  31.613688  
550  513  8.12944  -25.317688  26.590847  
551  516  4.636429  2.892334  5.4646196  
552  519  8.775192  13.467773  16.074356  
553  523  10.160446  13.865173  17.189465  
554  528  5.429062  4.373596  6.9715896  
555  533  17.461731  -3.5089111  17.810799  
556  538  6.337021  -9.000244  11.007372  
557  545  -8.694519  6.3310547  10.755321  
558  551  -8.507996  21.531372  23.151371  
559  555  39.6221  27.93512  48.479706  
560  562  9.2365265  11.736206  14.934923  
561  567  -2.3389893  5.0526123  5.567743  
562  572  33.188934  16.368896  37.006027  
563  576  -0.54397583  12.760376  12.771966  
564  582  45.948364  -7.076721  46.49013  
565  586  16.340622  -8.577454  18.455044  
566  589  38.506256  2.7247314  38.60254  
567  591  0.7238312  16.094849  16.111116  
568  594  8.74585  12.122742  14.948269  
569  595  15.6063385  1.269043  15.65785  
570  596  31.878922  27.459229  42.074635  
571  595  13.021309  26.254578  29.306269  
572  595  26.963875  8.833862  28.374067  
573  594  22.368507  10.932129  24.897018  
574  593  16.743073  15.778198  23.006128  
575  589  22.729996  3.5407715  23.004126  
576  584  18.673271  -2.4082642  18.827927  
577  581  10.213127  6.4658203  12.087796  
578  576  11.066956  8.531555  13.973723  
579  573  15.867249  16.676697  23.019161  
580  566  17.360344  16.905945  24.232056  
581  561  -5.6685715  1.9375  5.9905434  
582  555  32.23053  5.2112427  32.649105  
583  549  6.260193  1.038269  6.3457084  
584  544  5.0275497  -2.195984  5.4862194  
585  539  12.892006  9.349365  15.925277  
586  533  16.355476  16.22461  23.037786  
587  528  15.388237  19.83722  25.106037  
588  524  22.25964  7.883667  23.614481  
589  519  5.7140694  5.0302734  7.612768  
590  515  19.941986  16.963562  26.18101  
591  512  31.491268  -2.600586  31.598465  
592  510  47.086903  17.906433  50.37675  
593  508  20.904093  19.7182  28.736538  
594  508  22.693367  9.8897705  24.754726  
595  508  17.907158  2.451233  18.074148  
596  509  22.34782  0.32635498  22.350203  
597  510  10.285808  16.332275  19.301323  
598  513  17.17223  12.2647705  21.102371  
599  515  17.527037  17.46814  24.745361  
600  518  28.3806  28.862244  40.478237  
601  522  29.55065  -11.505432  31.711447  
602  528  31.145935  22.909973  38.664406  
603  532  11.789998  -3.1324463  12.199028  
604  539  -3.5500736  27.213013  27.443598  
605  544  27.836468  22.625  35.87143  
606  549  25.42048  16.476807  30.293333  
607  555  1.6826363  26.090149  26.144352  
608  560  25.633553  10.199951  27.588367  
609  566  11.525677  29.422424  31.599371  
610  572  25.617805  15.007507  29.69002  
611  576  14.000191  15.800293  21.110533  
612  581  25.234818  6.7421265  26.11996  
613  584  16.904629  -8.243591  18.807531  
614  588  -6.818695  22.115356  23.14268  
615  592  10.6790085  13.484192  17.200716  
616  595  27.525421  5.782959  28.126348  
617  595  36.87107  5.7788086  37.32118  
618  596  21.341965  7.4176025  22.594254  
619  596  16.43454  7.3952637  18.021765  
620  596  16.648354  1.6304932  16.728006  
621  594  -5.6292496  4.618164  7.281201  
622  592  27.158516  5.0235596  27.619217  
623  589  30.74247  28.274597  41.767838  
624  587  17.09533  49.408752  52.282646  
625  581  11.135468  9.039795  14.342821  
626  577  20.757362  31.948364  38.099426  
627  573  14.76532  20.191772  25.014442  
628  566  2.0724945  37.560852  37.617985  
629  562  33.924477  12.78186  36.252533  
630  556  15.246017  8.415466  17.414394  
631  549  16.784302  24.222351  29.469223  
632  544  6.2233887  31.54834  32.15631  
633  539  -5.2600403  33.79663  34.203514  
634  533  28.18927  30.560974  41.576534  
635  528  18.809204  5.816223  19.687931  
636  523  17.408691  19.034119  25.794577  
637  518  38.76709  15.665588  41.812653  
638  516  22.630875  27.22406  35.40206  
639  513  -18.134323  -10.463318  20.936443  
640  510  31.85437  -12.938843  34.381893  
641  509  -14.130295  4.7130127  14.895561  
642  508  4.0986786  -6.629944  7.79457  
643  509  -7.4995728  7.350586  10.501176  
644  509  21.701294  9.459473  23.673357  
645  510  3.5508728  9.496521  10.138669  
646  513  19.354904  18.360718  26.678236  
647  516  -0.06513977  21.991394  21.99149  
648  519  21.30603  9.437622  23.302696  
649  523  5.997711  22.135193  22.933367  
650  527  -22.3768  5.3164062  22.999681  
651  532  27.059921  24.05606  36.206814  
652  537  20.437027  9.641022  22.596933  
653  543  20.681274  41.92975  46.752743  
654  550  33.804153  12.083679  35.89897  
655  555  25.69461  7.978241  26.904745  
656  561  26.516739  16.95102  31.471806  
657  566  14.566986  5.187134  15.46297  
658  571  27.45253  43.560516  51.489414  
659  576  28.24443  34.880554  44.882076  
660  580  30.642792  25.780151  40.044937  
661  584  38.49588  7.8503723  39.288177  
662  588  26.879517  24.664276  36.48061  
663  592  27.946472  9.294708  29.451603  
664  594  43.11978  25.045837  49.865913  
665  596  49.79895  -5.6772766  50.12152  
666  596  47.614502  24.491394  53.544086  
667  595  20.663788  7.515045  21.987906  
668  596  4.5859985  1.8697205  4.9524984  
669  594  37.714233  15.32309  40.708237  
670  592  18.239838  19.825348  26.93949  
671  590  10.400787  21.05423  23.483122  
672  585  3.2899475  27.334259  27.531536  
673  582  31.804016  14.213593  34.835636  
674  577  23.4906  36.01584  42.999405  
675  572  51.086945  28.745789  58.61908  
676  566  34.604675  -0.9866638  34.618736  
677  563  35.977478  25.06781  43.849445  
678  556  37.070892  14.369202  39.758335  
679  550  18.442139  38.90442  43.054226  
680  544  26.038666  18.008423  31.659365  
681  539  42.44281  15.033752  45.026722  
682  534  18.944244  -4.6900635  19.516176  
683  528  36.704742  14.148895  39.33738  
684  524  20.766296  18.83548  28.035948  
685  519  38.585693  29.001495  48.269478  
686  516  27.331299  11.638641  29.706192  
687  513  24.95816  8.526581  26.374464  
688  511  45.708374  59.275604  74.8522  
689  509  38.203033  21.161469  43.672413  
690  508  48.797485  15.8993225  51.322342  
691  509  23.282898  47.007202  52.457317  
692  510  17.122314  26.65332  31.679222  
693  511  19.65512  16.241272  25.49711  
694  512  54.204803  10.273071  55.16971  
695  516  34.40921  25.4693  42.8098  
696  519  12.032745  40.589386  42.335392  
697  523  32.934113  45.863953  56.463776  
698  528  20.63153  26.05188  33.23192  
699  532  30.974884  42.300995  52.42917  
700  538  39.815735  29.37265  49.477726  
701  544  39.332153  16.303223  42.577145  
702  548  35.31079  51.725464  62.628872  
703  555  22.513458  29.015656  36.72552  
704  560  46.273468  31.963165  56.239468  
705  566  35.64148  20.652222  41.19259  
706  571  29.856567  45.034363  54.03248  
707  577  46.162598  46.506165  65.52716  
708  582  18.694244  15.217163  24.104706  
709  585  25.756836  19.164642  32.10449  
710  589  34.222015  1.4190674  34.251427  
711  592  35.859528  22.328156  42.24278  
712  593  42.468597  18.08664  46.159595  
713  595  48.943085  24.906952  54.916134  
714  596  33.988495  39.28708  51.94894  
715  596  16.973206  44.16098  47.310482  
716  596  21.812653  46.589783  51.44317  
717  595  43.583405  46.34015  63.61543  
718  592  54.89084  40.56848  68.25545  
719  589  48.765747  44.560272  66.058426  
720  585  25.312714  16.325958  30.12093  
721  581  55.496857  14.084442  57.256203  
722  577  51.044586  49.399963  71.034546  
723  573  65.08887  36.037292  74.39924  
724  567  53.19333  51.446503  74.00185  
725  561  61.260406  53.19577  81.13339  
726  556  76.59848  55.28241  94.46413  
727  550  65.655334  38.186554  75.95285  
728  545  60.257355  43.283905  74.19195  
729  539  76.59204  51.647522  92.37861  
730  533  44.0643  34.247772  55.808353  
731  527  46.2247  56.499634  72.999535  
732  524  54.240265  32.216125  63.08633  
733  519  63.970917  19.868835  66.985435  
734  516  46.054108  56.382782  72.801094  
735  514  60.31436  60.5231  85.445114  
736  511  59.56125  27.784607  65.72311  
737  509  54.220215  30.459808  62.19029  
738  509  62.539307  25.033997  67.363686  
739  508  50.17987  31.92479  59.47446  
740  508  64.3963  51.153748  82.24105  
741  510  47.26175  54.96808  72.4925  
742  513  57.865295  62.07448  84.862434  
743  515  57.673645  48.338318  75.25186  
744  520  76.816925  59.912216  97.41824  
745  523  56.05121  54.681427  78.305786  
746  528  70.608826  54.31189  89.080795  
747  533  77.63318  65.456116  101.545135  
748  538  81.849335  74.02617  110.35936  
749  543  79.39285  74.92436  109.16448  
750  549  82.46118  57.76686  100.68196  
751  555  87.82956  80.52251  119.15496  
752  560  90.241974  78.70941  119.74467  
753  566  116.47629  57.458405  129.87761  
754  571  115.953735  78.63269  140.10129  
755  577  110.589264  59.462463  125.56181  
756  581  121.93707  81.67532  146.76344  
757  585  100.51648  85.103775  131.70503  
758  589  119.26251  86.80687  147.50926  
759  592  132.29147  100.43193  166.09517  
760  594  134.62811  91.72104  162.90327  
761  595  137.42801  110.10475  176.09518  
762  596  141.12491  87.3168  165.9532  
763  596  182.64539  105.669266  211.01025  
764  596  173.79599  127.039246  215.2766  
765  594  180.63776  116.34627  214.8638  
766  592  195.31714  103.22247  220.91551  
767  589  226.1337  107.431885  250.35587  
768  586  226.00305  153.15048  273.00632  
769  583  238.91278  134.43626  274.13943  
770  577  278.36536  169.93188  326.13513  
771  572  300.69507  165.0469  343.01312  
772  568  322.09427  170.37445  364.37915  
773  562  380.5821  179.11238  420.62332  
774  555  409.44705  213.58932  461.80872  
775  549  479.2345  239.6673  535.8229  
776  544  532.3612  227.1106  578.7812  
777  540  649.0607  293.5157  712.3421  
778  534  771.7779  324.3048  837.1468  
779  529  987.35864  398.45035  1064.7252  
780  524  1293.9424  498.63638  1386.6958  
781  520  1910.4861  703.5619  2035.9165  
782  516  3394.9717  1191.72  3598.059  
783  514  13558.901  4540.2695  14298.876  
784  510  -7260.682  -2313.3906  7620.3203  
785  509  -2955.4949  -885.7124  3085.3584  
786  508  -1870.9828  -535.01337  1945.9742  
787  509  -1399.5466  -344.2484  1441.2626  
788  510  -1124.1086  -262.2966  1154.3049  
789  510  -982.2689  -236.5586  1010.35254  
790  512  -833.8209  -196.7165  856.71155  
791  514  -759.03375  -147.42789  773.21875  
792  520  -702.05975  -113.780106  711.22  
793  523  -619.9855  -98.1486  627.70624  
794  527  -576.6933  -83.65105  582.72864  
795  531  -567.0314  -76.30117  572.14197  
796  537  -551.00726  -41.910553  552.5989  
797  543  -476.26984  -45.757355  478.46283  
798  549  -404.8495  -7.503009  404.919  
799  555  -282.92932  11.121602  283.14783  
